"sample_c - RawData"
"Wavelength nm.","T%"
200.00,0.122
200.50,-0.107
201.00,0.071
201.50,0.089
202.00,-0.011
202.50,0.061
203.00,0.089
203.50,0.088
204.00,0.066
204.50,-0.042
205.00,-0.039
205.50,0.027
206.00,-0.088
206.50,0.008
207.00,0.078
207.50,-0.027
208.00,0.100
208.50,0.044
209.00,0.047
209.50,0.040
210.00,0.036
210.50,0.004
211.00,0.005
211.50,0.039
212.00,0.014
212.50,0.070
213.00,-0.011
213.50,0.005
214.00,0.021
214.50,-0.002
215.00,0.032
215.50,0.043
216.00,0.019
216.50,-0.020
217.00,0.009
217.50,-0.001
218.00,-0.003
218.50,-0.006
219.00,0.026
219.50,0.039
220.00,0.005
220.50,0.024
221.00,0.017
221.50,0.011
222.00,0.022
222.50,0.015
223.00,0.017
223.50,0.030
224.00,-0.001
224.50,0.013
225.00,0.023
225.50,0.033
226.00,0.033
226.50,0.027
227.00,0.018
227.50,0.029
228.00,0.006
228.50,0.024
229.00,0.022
229.50,0.037
230.00,0.011
230.50,0.015
231.00,0.021
231.50,0.024
232.00,0.019
232.50,0.017
233.00,0.036
233.50,0.020
234.00,0.019
234.50,0.019
235.00,0.020
235.50,0.017
236.00,0.035
236.50,0.020
237.00,0.024
237.50,0.026
238.00,0.009
238.50,0.016
239.00,0.026
239.50,0.024
240.00,0.020
240.50,0.029
241.00,0.024
241.50,0.024
242.00,0.016
242.50,0.026
243.00,0.022
243.50,0.007
244.00,0.019
244.50,0.017
245.00,0.020
245.50,0.016
246.00,0.019
246.50,0.018
247.00,0.020
247.50,0.022
248.00,0.014
248.50,0.020
249.00,0.022
249.50,0.015
250.00,0.014
250.50,0.009
251.00,0.019
251.50,0.027
252.00,0.029
252.50,0.013
253.00,0.025
253.50,0.027
254.00,0.015
254.50,0.015
255.00,0.016
255.50,0.012
256.00,0.013
256.50,0.017
257.00,0.022
257.50,0.023
258.00,0.006
258.50,0.010
259.00,0.025
259.50,0.020
260.00,0.020
260.50,0.007
261.00,0.008
261.50,0.022
262.00,0.014
262.50,0.015
263.00,0.012
263.50,0.023
264.00,0.001
264.50,0.026
265.00,0.020
265.50,0.014
266.00,0.003
266.50,0.018
267.00,0.013
267.50,0.018
268.00,0.010
268.50,0.015
269.00,0.011
269.50,0.005
270.00,0.011
270.50,0.012
271.00,0.017
271.50,0.012
272.00,0.013
272.50,0.022
273.00,0.022
273.50,0.004
274.00,0.013
274.50,0.011
275.00,0.003
275.50,0.018
276.00,0.020
276.50,0.020
277.00,0.013
277.50,0.017
278.00,0.012
278.50,-0.001
279.00,0.014
279.50,0.009
280.00,0.012
280.50,0.020
281.00,0.010
281.50,0.005
282.00,0.014
282.50,0.011
283.00,0.008
283.50,0.009
284.00,0.002
284.50,0.015
285.00,0.008
285.50,0.015
286.00,0.003
286.50,-0.000
287.00,0.008
287.50,0.004
288.00,0.017
288.50,0.024
289.00,0.015
289.50,0.012
290.00,0.017
290.50,0.009
291.00,0.018
291.50,0.011
292.00,0.014
292.50,0.009
293.00,0.012
293.50,0.011
294.00,0.008
294.50,0.013
295.00,0.009
295.50,0.020
296.00,0.005
296.50,0.016
297.00,0.018
297.50,0.024
298.00,0.007
298.50,0.020
299.00,0.007
299.50,0.013
300.00,0.013
300.50,0.016
301.00,0.011
301.50,-0.002
302.00,0.018
302.50,0.021
303.00,0.014
303.50,0.002
304.00,0.024
304.50,0.002
305.00,0.024
305.50,0.017
306.00,0.011
306.50,0.027
307.00,0.013
307.50,0.012
308.00,0.027
308.50,0.019
309.00,0.021
309.50,0.024
310.00,0.024
310.50,0.025
311.00,0.021
311.50,0.027
312.00,0.039
312.50,0.041
313.00,0.040
313.50,0.068
314.00,0.063
314.50,0.070
315.00,0.086
315.50,0.103
316.00,0.132
316.50,0.130
317.00,0.165
317.50,0.176
318.00,0.244
318.50,0.285
319.00,0.324
319.50,0.370
320.00,0.443
320.50,0.499
321.00,0.560
321.50,0.666
322.00,0.734
322.50,0.831
323.00,0.937
323.50,1.113
324.00,1.284
324.50,1.445
325.00,1.603
325.50,1.749
326.00,2.084
326.50,2.343
327.00,2.620
327.50,2.883
328.00,3.216
328.50,3.579
329.00,3.941
329.50,4.377
330.00,4.871
330.50,5.288
331.00,5.797
331.50,6.227
332.00,6.686
332.50,7.296
333.00,7.920
333.50,8.697
334.00,9.453
334.50,10.030
335.00,10.707
335.50,11.350
336.00,12.039
336.50,12.924
337.00,13.756
337.50,14.177
338.00,15.087
338.50,15.634
339.00,16.264
339.50,17.133
340.00,17.770
340.50,19.116
341.00,19.605
341.50,20.949
342.00,21.019
342.50,20.923
343.00,22.014
343.50,23.617
344.00,23.838
344.50,24.560
345.00,25.213
345.50,26.437
346.00,26.357
346.50,27.425
347.00,27.709
347.50,28.852
348.00,29.899
348.50,30.713
349.00,31.734
349.50,32.530
350.00,33.315
350.50,34.021
351.00,35.058
351.50,35.688
352.00,36.772
352.50,37.643
353.00,38.533
353.50,40.192
354.00,41.157
354.50,41.589
355.00,43.099
355.50,44.361
356.00,45.429
356.50,46.350
357.00,47.212
357.50,48.498
358.00,49.973
358.50,51.346
359.00,52.267
359.50,53.755
360.00,54.108
360.50,55.292
361.00,56.135
361.50,57.714
362.00,58.660
362.50,59.346
363.00,60.913
363.50,61.172
364.00,62.128
364.50,62.380
365.00,64.081
365.50,64.722
366.00,65.423
366.50,66.374
367.00,66.368
367.50,67.538
368.00,67.630
368.50,68.245
369.00,68.437
369.50,69.037
370.00,69.653
370.50,69.840
371.00,70.175
371.50,70.621
372.00,71.101
372.50,71.163
373.00,71.166
373.50,71.455
374.00,71.508
374.50,71.897
375.00,71.903
375.50,71.784
376.00,71.967
376.50,72.133
377.00,72.147
377.50,72.603
378.00,72.513
378.50,72.806
379.00,72.684
379.50,73.282
380.00,73.538
380.50,74.178
381.00,74.201
381.50,74.269
382.00,74.646
382.50,75.179
383.00,75.714
383.50,75.905
384.00,76.687
384.50,76.663
385.00,77.430
385.50,77.480
386.00,78.037
386.50,78.197
387.00,78.621
387.50,78.825
388.00,79.382
388.50,79.438
389.00,79.832
389.50,79.899
390.00,80.320
390.50,80.706
391.00,80.306
391.50,80.825
392.00,80.833
392.50,81.513
393.00,81.161
393.50,81.593
394.00,81.684
394.50,82.019
395.00,82.278
395.50,82.026
396.00,82.061
396.50,82.146
397.00,81.937
397.50,82.226
398.00,82.293
398.50,82.221
399.00,82.354
399.50,82.132
400.00,82.223
400.50,82.613
401.00,82.102
401.50,82.146
402.00,82.205
402.50,81.903
403.00,82.047
403.50,82.090
404.00,82.065
404.50,81.678
405.00,81.814
405.50,81.386
406.00,81.464
406.50,81.455
407.00,81.498
407.50,81.426
408.00,81.141
408.50,81.056
409.00,81.051
409.50,80.806
410.00,80.878
410.50,80.860
411.00,80.883
411.50,80.823
412.00,80.759
412.50,80.415
413.00,80.566
413.50,80.291
414.00,80.438
414.50,80.019
415.00,80.246
415.50,80.304
416.00,80.171
416.50,80.215
417.00,80.302
417.50,79.858
418.00,80.171
418.50,80.124
419.00,80.415
419.50,80.191
420.00,80.382
420.50,80.618
421.00,80.464
421.50,80.781
422.00,80.618
422.50,80.656
423.00,80.552
423.50,80.537
424.00,80.922
424.50,80.906
425.00,80.816
425.50,81.058
426.00,81.218
426.50,80.968
427.00,81.407
427.50,81.305
428.00,81.769
428.50,81.887
429.00,81.800
429.50,82.164
430.00,81.903
430.50,81.924
431.00,82.007
431.50,82.067
432.00,82.330
432.50,82.369
433.00,82.568
433.50,82.626
434.00,82.544
434.50,82.851
435.00,82.890
435.50,83.232
436.00,83.214
436.50,83.191
437.00,83.337
437.50,83.510
438.00,83.476
438.50,83.903
439.00,84.028
439.50,83.842
440.00,84.173
440.50,84.125
441.00,84.013
441.50,84.005
442.00,84.239
442.50,84.383
443.00,84.151
443.50,84.586
444.00,84.361
444.50,84.519
445.00,84.313
445.50,84.436
446.00,84.513
446.50,84.390
447.00,84.778
447.50,84.628
448.00,84.559
448.50,84.244
449.00,84.428
449.50,84.489
450.00,84.135
450.50,84.302
451.00,84.264
451.50,84.088
452.00,84.190
452.50,84.213
453.00,83.810
453.50,83.702
454.00,83.515
454.50,83.660
455.00,83.658
455.50,83.371
456.00,83.250
456.50,83.127
457.00,82.859
457.50,82.596
458.00,82.543
458.50,82.538
459.00,82.225
459.50,82.394
460.00,82.206
460.50,81.993
461.00,81.777
461.50,81.566
462.00,81.119
462.50,81.106
463.00,80.801
463.50,80.683
464.00,80.597
464.50,80.538
465.00,80.368
465.50,80.114
466.00,79.866
466.50,79.593
467.00,79.415
467.50,79.172
468.00,79.397
468.50,79.057
469.00,79.041
469.50,78.792
470.00,78.394
470.50,78.346
471.00,77.946
471.50,77.701
472.00,77.640
472.50,77.533
473.00,77.657
473.50,77.613
474.00,77.471
474.50,77.256
475.00,76.981
475.50,76.853
476.00,76.614
476.50,76.405
477.00,76.542
477.50,76.585
478.00,76.449
478.50,76.418
479.00,76.367
479.50,76.302
480.00,76.145
480.50,75.803
481.00,75.757
481.50,75.809
482.00,75.828
482.50,76.099
483.00,75.918
483.50,76.104
484.00,75.969
484.50,75.860
485.00,75.731
485.50,75.750
486.00,75.598
486.50,75.757
487.00,76.067
487.50,76.091
488.00,76.109
488.50,76.277
489.00,76.156
489.50,76.062
490.00,76.006
490.50,76.149
491.00,76.148
491.50,76.511
492.00,76.686
492.50,76.967
493.00,77.057
493.50,77.162
494.00,77.158
494.50,77.292
495.00,77.144
495.50,77.414
496.00,77.513
496.50,77.581
497.00,77.955
497.50,78.401
498.00,78.445
498.50,78.488
499.00,78.834
499.50,78.793
500.00,79.079
500.50,79.111
501.00,79.174
501.50,79.405
502.00,79.790
502.50,80.091
503.00,80.388
503.50,80.709
504.00,81.032
504.50,80.885
505.00,81.035
505.50,81.103
506.00,81.334
506.50,81.829
507.00,81.895
507.50,82.176
508.00,82.631
508.50,82.929
509.00,83.293
509.50,83.395
510.00,83.549
510.50,83.502
511.00,83.532
511.50,83.585
512.00,84.048
512.50,84.223
513.00,84.594
513.50,84.988
514.00,85.122
514.50,85.637
515.00,85.749
515.50,85.605
516.00,85.806
516.50,85.854
517.00,85.855
517.50,86.061
518.00,86.071
518.50,86.186
519.00,86.638
519.50,86.833
520.00,86.956
520.50,87.043
521.00,87.086
521.50,86.851
522.00,86.868
522.50,86.790
523.00,86.804
523.50,86.629
524.00,86.903
524.50,87.103
525.00,87.190
525.50,87.106
526.00,87.077
526.50,86.996
527.00,86.778
527.50,86.541
528.00,86.469
528.50,86.303
529.00,86.026
529.50,85.777
530.00,85.514
530.50,85.572
531.00,85.407
531.50,85.313
532.00,85.164
532.50,84.785
533.00,84.457
533.50,84.069
534.00,83.563
534.50,83.233
535.00,82.966
535.50,82.430
536.00,82.176
536.50,81.765
537.00,81.588
537.50,81.429
538.00,80.971
538.50,80.656
539.00,80.165
539.50,79.548
540.00,79.013
540.50,78.322
541.00,77.736
541.50,77.299
542.00,76.769
542.50,76.313
543.00,75.970
543.50,75.667
544.00,75.022
544.50,74.662
545.00,74.139
545.50,73.311
546.00,72.666
546.50,71.929
547.00,71.304
547.50,70.588
548.00,70.157
548.50,69.597
549.00,69.149
549.50,68.618
550.00,68.042
550.50,67.603
551.00,67.114
551.50,66.391
552.00,65.882
552.50,65.151
553.00,64.404
553.50,63.751
554.00,63.038
554.50,62.435
555.00,61.900
555.50,61.496
556.00,60.910
556.50,60.306
557.00,59.806
557.50,59.386
558.00,58.776
558.50,58.336
559.00,57.545
559.50,56.981
560.00,56.226
560.50,55.528
561.00,55.050
561.50,54.538
562.00,53.994
562.50,53.523
563.00,53.123
563.50,52.678
564.00,52.187
564.50,51.569
565.00,51.192
565.50,50.576
566.00,49.928
566.50,49.492
567.00,48.874
567.50,48.390
568.00,47.771
568.50,47.451
569.00,47.071
569.50,46.652
570.00,46.254
570.50,45.871
571.00,45.548
571.50,45.291
572.00,44.787
572.50,44.239
573.00,43.795
573.50,43.240
574.00,42.765
574.50,42.269
575.00,41.883
575.50,41.506
576.00,41.191
576.50,40.918
577.00,40.622
577.50,40.326
578.00,40.051
578.50,39.685
579.00,39.369
579.50,39.057
580.00,38.627
580.50,38.210
581.00,37.782
581.50,37.463
582.00,36.930
582.50,36.624
583.00,36.361
583.50,36.181
584.00,35.958
584.50,35.668
585.00,35.475
585.50,35.267
586.00,35.008
586.50,34.791
587.00,34.341
587.50,34.072
588.00,33.800
588.50,33.394
589.00,33.137
589.50,32.859
590.00,32.516
590.50,32.309
591.00,32.155
591.50,31.947
592.00,31.721
592.50,31.613
593.00,31.473
593.50,31.227
594.00,31.105
594.50,30.822
595.00,30.599
595.50,30.282
596.00,30.100
596.50,29.837
597.00,29.625
597.50,29.394
598.00,29.211
598.50,29.018
599.00,28.839
599.50,28.722
600.00,28.624
600.50,28.607
601.00,28.397
601.50,28.256
602.00,28.109
602.50,27.939
603.00,27.705
603.50,27.481
604.00,27.323
604.50,27.077
605.00,26.920
605.50,26.710
606.00,26.583
606.50,26.474
607.00,26.410
607.50,26.276
608.00,26.242
608.50,26.162
609.00,26.041
609.50,25.995
610.00,25.860
610.50,25.752
611.00,25.568
611.50,25.372
612.00,25.244
612.50,25.055
613.00,24.920
613.50,24.799
614.00,24.652
614.50,24.568
615.00,24.539
615.50,24.468
616.00,24.353
616.50,24.349
617.00,24.307
617.50,24.321
618.00,24.164
618.50,24.016
619.00,24.001
619.50,23.816
620.00,23.720
620.50,23.625
621.00,23.473
621.50,23.392
622.00,23.252
622.50,23.148
623.00,23.136
623.50,23.082
624.00,23.072
624.50,22.997
625.00,23.005
625.50,23.019
626.00,22.911
626.50,22.923
627.00,22.879
627.50,22.716
628.00,22.709
628.50,22.626
629.00,22.478
629.50,22.355
630.00,22.304
630.50,22.266
631.00,22.183
631.50,22.160
632.00,22.113
632.50,22.130
633.00,22.066
633.50,22.141
634.00,22.067
634.50,22.140
635.00,22.091
635.50,22.090
636.00,22.075
636.50,21.986
637.00,21.948
637.50,21.877
638.00,21.788
638.50,21.676
639.00,21.640
639.50,21.579
640.00,21.512
640.50,21.494
641.00,21.557
641.50,21.541
642.00,21.591
642.50,21.574
643.00,21.685
643.50,21.667
644.00,21.608
644.50,21.654
645.00,21.607
645.50,21.622
646.00,21.552
646.50,21.539
647.00,21.483
647.50,21.390
648.00,21.393
648.50,21.313
649.00,21.297
649.50,21.264
650.00,21.298
650.50,21.322
651.00,21.314
651.50,21.392
652.00,21.431
652.50,21.460
653.00,21.489
653.50,21.558
654.00,21.640
654.50,21.588
655.00,21.569
655.50,21.559
656.00,21.530
656.50,21.512
657.00,21.409
657.50,21.435
658.00,21.335
658.50,21.361
659.00,21.386
659.50,21.385
660.00,21.463
660.50,21.567
661.00,21.589
661.50,21.695
662.00,21.772
662.50,21.823
663.00,21.900
663.50,22.000
664.00,21.965
664.50,21.986
665.00,22.011
665.50,21.935
666.00,21.939
666.50,21.867
667.00,21.862
667.50,21.808
668.00,21.797
668.50,21.821
669.00,21.818
669.50,21.901
670.00,22.007
670.50,22.060
671.00,22.204
671.50,22.314
672.00,22.372
672.50,22.422
673.00,22.525
673.50,22.599
674.00,22.608
674.50,22.667
675.00,22.686
675.50,22.636
676.00,22.685
676.50,22.698
677.00,22.683
677.50,22.650
678.00,22.645
678.50,22.688
679.00,22.747
679.50,22.727
680.00,22.828
680.50,22.897
681.00,22.950
681.50,23.109
682.00,23.297
682.50,23.384
683.00,23.524
683.50,23.549
684.00,23.666
684.50,23.704
685.00,23.752
685.50,23.675
686.00,23.768
686.50,23.821
687.00,23.781
687.50,23.790
688.00,23.817
688.50,23.908
689.00,23.906
689.50,23.998
690.00,24.033
690.50,24.177
691.00,24.275
691.50,24.390
692.00,24.418
692.50,24.609
693.00,24.718
693.50,24.886
694.00,24.915
694.50,25.024
695.00,25.117
695.50,25.248
696.00,25.267
696.50,25.321
697.00,25.342
697.50,25.372
698.00,25.513
698.50,25.421
699.00,25.487
699.50,25.466
700.00,25.610
700.50,25.595
701.00,25.725
701.50,25.827
702.00,26.113
702.50,26.291
703.00,26.318
703.50,26.436
704.00,26.590
704.50,26.782
705.00,26.998
705.50,27.018
706.00,27.250
706.50,27.314
707.00,27.321
707.50,27.387
708.00,27.443
708.50,27.434
709.00,27.647
709.50,27.511
710.00,27.543
710.50,27.633
711.00,27.727
711.50,27.852
712.00,27.951
712.50,28.044
713.00,28.226
713.50,28.444
714.00,28.499
714.50,28.725
715.00,28.898
715.50,29.155
716.00,29.277
716.50,29.515
717.00,29.593
717.50,29.756
718.00,29.841
718.50,29.926
719.00,29.909
719.50,30.214
720.00,30.207
720.50,30.263
721.00,30.253
721.50,30.412
722.00,30.563
722.50,30.376
723.00,30.581
723.50,30.656
724.00,30.823
724.50,30.996
725.00,31.277
725.50,31.406
726.00,31.548
726.50,31.729
727.00,32.009
727.50,32.289
728.00,32.368
728.50,32.664
729.00,32.852
729.50,32.965
730.00,33.126
730.50,33.163
731.00,33.286
731.50,33.571
732.00,33.558
732.50,33.668
733.00,33.616
733.50,33.792
734.00,33.898
734.50,33.881
735.00,34.132
735.50,34.111
736.00,34.387
736.50,34.648
737.00,34.812
737.50,35.029
738.00,35.233
738.50,35.558
739.00,35.810
739.50,36.119
740.00,36.279
740.50,36.578
741.00,36.656
741.50,37.049
742.00,37.135
742.50,37.254
743.00,37.408
743.50,37.434
744.00,37.679
744.50,37.582
745.00,37.658
745.50,37.846
746.00,38.041
746.50,38.141
747.00,38.176
747.50,38.400
748.00,38.567
748.50,38.926
749.00,38.941
749.50,39.162
750.00,39.523
750.50,39.739
751.00,40.163
751.50,40.452
752.00,40.662
752.50,41.077
753.00,41.354
753.50,41.561
754.00,41.577
754.50,41.829
755.00,42.154
755.50,42.315
756.00,42.415
756.50,42.565
757.00,42.712
757.50,42.800
758.00,42.784
758.50,43.110
759.00,43.018
759.50,43.292
760.00,43.205
760.50,43.498
761.00,43.520
761.50,43.824
762.00,44.205
762.50,44.555
763.00,44.658
763.50,45.278
764.00,45.431
764.50,45.654
765.00,45.973
765.50,46.352
766.00,46.659
766.50,47.173
767.00,47.409
767.50,47.835
768.00,47.874
768.50,48.142
769.00,48.198
769.50,48.426
770.00,48.409
770.50,48.477
771.00,48.681
771.50,48.690
772.00,48.752
772.50,49.093
773.00,49.095
773.50,49.218
774.00,49.230
774.50,49.743
775.00,49.946
775.50,50.340
776.00,50.710
776.50,50.974
777.00,51.183
777.50,51.723
778.00,52.137
778.50,52.553
779.00,52.880
779.50,53.409
780.00,54.023
780.50,54.176
781.00,54.507
781.50,54.865
782.00,54.969
782.50,55.361
783.00,55.220
783.50,55.472
784.00,55.502
784.50,55.415
785.00,55.590
785.50,55.578
786.00,55.813
786.50,55.876
787.00,56.058
787.50,56.434
788.00,56.161
788.50,56.382
789.00,56.562
789.50,57.056
790.00,57.383
790.50,57.981
791.00,58.274
791.50,58.620
792.00,59.391
792.50,59.561
793.00,60.397
793.50,60.539
794.00,61.025
794.50,61.098
795.00,61.851
795.50,62.043
796.00,62.529
796.50,62.404
797.00,62.395
797.50,62.803
798.00,62.827
798.50,62.662
799.00,62.877
799.50,63.204
800.00,62.794
800.50,62.978
801.00,63.193
801.50,63.288
802.00,63.515
802.50,63.629
803.00,63.562
803.50,63.934
804.00,64.373
804.50,64.861
805.00,64.772
805.50,65.738
806.00,65.856
806.50,66.307
807.00,67.002
807.50,67.498
808.00,68.302
808.50,68.168
809.00,68.848
809.50,68.579
810.00,69.339
810.50,69.865
811.00,69.723
811.50,70.283
812.00,70.188
812.50,70.240
813.00,70.448
813.50,70.160
814.00,70.002
814.50,70.590
815.00,70.467
815.50,70.677
816.00,70.496
816.50,70.229
817.00,70.137
817.50,70.769
818.00,70.949
818.50,71.143
819.00,71.638
819.50,71.808
820.00,72.071
820.50,72.664
821.00,73.022
821.50,73.764
822.00,73.937
822.50,74.282
823.00,75.388
823.50,75.110
824.00,75.961
824.50,76.364
825.00,76.546
825.50,76.722
826.00,77.174
826.50,77.223
827.00,77.162
827.50,77.725
828.00,77.868
828.50,77.155
829.00,77.389
829.50,77.401
830.00,77.255
830.50,77.574
831.00,77.100
831.50,77.624
832.00,77.159
832.50,77.181
833.00,77.843
833.50,77.748
834.00,78.189
834.50,77.661
835.00,78.099
835.50,78.674
836.00,79.164
836.50,79.138
837.00,79.813
837.50,79.988
838.00,81.213
838.50,81.560
839.00,81.679
839.50,82.549
840.00,82.148
840.50,82.742
841.00,82.673
841.50,83.432
842.00,83.250
842.50,83.446
843.00,83.487
843.50,83.264
844.00,83.689
844.50,83.528
845.00,83.536
845.50,83.301
846.00,83.895
846.50,82.496
847.00,82.600
847.50,83.887
848.00,82.145
848.50,83.146
849.00,82.825
849.50,82.660
850.00,82.978
850.50,83.256
851.00,82.595
851.50,83.667
852.00,84.198
852.50,84.312
853.00,84.631
853.50,85.248
854.00,84.895
854.50,85.420
855.00,85.669
855.50,87.002
856.00,87.293
856.50,87.198
857.00,87.560
857.50,87.234
858.00,88.328
858.50,86.968
859.00,87.775
859.50,87.629
860.00,87.740
860.50,88.570
861.00,88.171
861.50,87.502
862.00,87.599
862.50,87.728
863.00,88.090
863.50,87.149
864.00,86.827
864.50,87.782
865.00,87.354
865.50,86.453
866.00,86.585
866.50,86.381
867.00,86.907
867.50,86.992
868.00,87.697
868.50,87.235
869.00,88.261
869.50,87.641
870.00,88.446
870.50,89.042
871.00,88.378
871.50,89.106
872.00,89.813
872.50,89.774
873.00,90.305
873.50,89.910
874.00,89.705
874.50,89.984
875.00,91.232
875.50,90.574
876.00,91.715
876.50,92.328
877.00,90.340
877.50,90.819
878.00,90.127
878.50,90.238
879.00,89.121
879.50,90.207
880.00,90.687
880.50,90.153
881.00,89.141
881.50,88.748
882.00,88.932
882.50,89.196
883.00,88.087
883.50,88.001
884.00,88.755
884.50,88.915
885.00,87.584
885.50,89.821
886.00,90.418
886.50,89.365
887.00,87.481
887.50,89.571
888.00,91.491
888.50,90.891
889.00,91.907
889.50,90.753
890.00,90.014
890.50,92.104
891.00,91.382
891.50,90.826
892.00,88.585
892.50,93.148
893.00,93.350
893.50,90.945
894.00,92.353
894.50,91.892
895.00,92.901
895.50,93.771
896.00,93.530
896.50,91.326
897.00,91.914
897.50,89.292
898.00,88.225
898.50,87.321
899.00,89.564
899.50,91.509
900.00,89.498
900.50,90.026
901.00,90.152
901.50,90.022
902.00,90.005
902.50,90.020
903.00,89.982
903.50,90.084
904.00,90.003
904.50,90.107
905.00,90.294
905.50,89.941
906.00,89.947
906.50,89.959
907.00,89.904
907.50,89.977
908.00,90.099
908.50,90.128
909.00,90.104
909.50,89.789
910.00,89.950
910.50,89.996
911.00,89.882
911.50,89.876
912.00,89.797
912.50,89.991
913.00,89.959
913.50,89.866
914.00,89.822
914.50,89.847
915.00,89.746
915.50,89.602
916.00,89.739
916.50,89.577
917.00,89.565
917.50,89.562
918.00,89.649
918.50,89.568
919.00,89.580
919.50,89.541
920.00,89.481
920.50,89.471
921.00,89.490
921.50,89.483
922.00,89.388
922.50,89.407
923.00,89.462
923.50,89.334
924.00,89.325
924.50,89.284
925.00,89.343
925.50,89.276
926.00,89.293
926.50,89.248
927.00,89.346
927.50,89.264
928.00,89.149
928.50,89.192
929.00,89.078
929.50,89.213
930.00,89.172
930.50,89.167
931.00,89.046
931.50,89.069
932.00,89.079
932.50,88.950
933.00,88.901
933.50,88.864
934.00,88.981
934.50,88.902
935.00,88.759
935.50,88.855
936.00,88.667
936.50,88.722
937.00,88.686
937.50,88.645
938.00,88.595
938.50,88.613
939.00,88.467
939.50,88.517
940.00,88.451
940.50,88.437
941.00,88.456
941.50,88.400
942.00,88.403
942.50,88.359
943.00,88.241
943.50,88.322
944.00,88.261
944.50,88.273
945.00,88.139
945.50,88.188
946.00,88.229
946.50,88.096
947.00,88.090
947.50,88.065
948.00,87.994
948.50,88.096
949.00,88.022
949.50,88.013
950.00,87.929
950.50,88.014
951.00,87.909
951.50,87.856
952.00,87.884
952.50,87.805
953.00,87.818
953.50,87.771
954.00,87.771
954.50,87.685
955.00,87.671
955.50,87.691
956.00,87.589
956.50,87.632
957.00,87.611
957.50,87.537
958.00,87.538
958.50,87.475
959.00,87.395
959.50,87.379
960.00,87.362
960.50,87.291
961.00,87.375
961.50,87.287
962.00,87.240
962.50,87.212
963.00,87.232
963.50,87.137
964.00,87.199
964.50,87.125
965.00,87.085
965.50,87.101
966.00,87.132
966.50,87.088
967.00,87.113
967.50,87.088
968.00,87.105
968.50,87.049
969.00,87.079
969.50,87.045
970.00,87.037
970.50,87.049
971.00,87.009
971.50,87.048
972.00,87.016
972.50,87.040
973.00,86.990
973.50,87.015
974.00,87.033
974.50,86.942
975.00,86.947
975.50,86.887
976.00,86.901
976.50,86.871
977.00,86.889
977.50,86.807
978.00,86.802
978.50,86.782
979.00,86.739
979.50,86.671
980.00,86.671
980.50,86.590
981.00,86.581
981.50,86.562
982.00,86.552
982.50,86.552
983.00,86.521
983.50,86.453
984.00,86.480
984.50,86.386
985.00,86.413
985.50,86.377
986.00,86.371
986.50,86.365
987.00,86.379
987.50,86.330
988.00,86.345
988.50,86.401
989.00,86.351
989.50,86.322
990.00,86.314
990.50,86.314
991.00,86.346
991.50,86.376
992.00,86.410
992.50,86.363
993.00,86.398
993.50,86.421
994.00,86.377
994.50,86.390
995.00,86.383
995.50,86.427
996.00,86.375
996.50,86.362
997.00,86.363
997.50,86.370
998.00,86.316
998.50,86.344
999.00,86.293
999.50,86.289
1000.00,86.294
1000.50,86.245
1001.00,86.231
1001.50,86.162
1002.00,86.183
1002.50,86.148
1003.00,86.048
1003.50,86.059
1004.00,86.045
1004.50,86.025
1005.00,85.987
1005.50,85.962
1006.00,85.934
1006.50,85.864
1007.00,85.907
1007.50,85.870
1008.00,85.834
1008.50,85.880
1009.00,85.848
1009.50,85.835
1010.00,85.845
1010.50,85.852
1011.00,85.828
1011.50,85.838
1012.00,85.877
1012.50,85.883
1013.00,85.928
1013.50,85.868
1014.00,85.915
1014.50,85.914
1015.00,85.893
1015.50,85.993
1016.00,85.958
1016.50,85.957
1017.00,85.969
1017.50,85.990
1018.00,86.068
1018.50,86.037
1019.00,86.004
1019.50,86.026
1020.00,86.015
1020.50,86.012
1021.00,86.027
1021.50,86.069
1022.00,85.998
1022.50,85.999
1023.00,85.979
1023.50,85.971
1024.00,85.926
1024.50,85.914
1025.00,85.897
1025.50,85.856
1026.00,85.860
1026.50,85.854
1027.00,85.831
1027.50,85.808
1028.00,85.790
1028.50,85.762
1029.00,85.755
1029.50,85.754
1030.00,85.721
1030.50,85.703
1031.00,85.683
1031.50,85.719
1032.00,85.715
1032.50,85.698
1033.00,85.688
1033.50,85.682
1034.00,85.729
1034.50,85.709
1035.00,85.694
1035.50,85.729
1036.00,85.714
1036.50,85.752
1037.00,85.749
1037.50,85.782
1038.00,85.816
1038.50,85.814
1039.00,85.828
1039.50,85.871
1040.00,85.885
1040.50,85.902
1041.00,85.954
1041.50,85.985
1042.00,86.022
1042.50,86.018
1043.00,86.034
1043.50,86.062
1044.00,86.098
1044.50,86.070
1045.00,86.078
1045.50,86.126
1046.00,86.129
1046.50,86.131
1047.00,86.114
1047.50,86.150
1048.00,86.111
1048.50,86.139
1049.00,86.090
1049.50,86.102
1050.00,86.101
1050.50,86.065
1051.00,86.040
1051.50,86.022
1052.00,86.032
1052.50,86.018
1053.00,86.002
1053.50,85.973
1054.00,85.973
1054.50,85.939
1055.00,85.946
1055.50,85.982
1056.00,85.923
1056.50,85.921
1057.00,85.942
1057.50,85.911
1058.00,85.934
1058.50,85.927
1059.00,85.914
1059.50,85.977
1060.00,86.009
1060.50,85.995
1061.00,85.993
1061.50,86.024
1062.00,86.023
1062.50,86.092
1063.00,86.076
1063.50,86.110
1064.00,86.145
1064.50,86.144
1065.00,86.165
1065.50,86.209
1066.00,86.252
1066.50,86.262
1067.00,86.289
1067.50,86.301
1068.00,86.358
1068.50,86.369
1069.00,86.360
1069.50,86.405
1070.00,86.421
1070.50,86.449
1071.00,86.433
1071.50,86.437
1072.00,86.452
1072.50,86.497
1073.00,86.478
1073.50,86.514
1074.00,86.503
1074.50,86.505
1075.00,86.512
1075.50,86.510
1076.00,86.491
1076.50,86.502
1077.00,86.468
1077.50,86.494
1078.00,86.482
1078.50,86.495
1079.00,86.483
1079.50,86.501
1080.00,86.489
1080.50,86.500
1081.00,86.480
1081.50,86.475
1082.00,86.487
1082.50,86.506
1083.00,86.494
1083.50,86.500
1084.00,86.535
1084.50,86.532
1085.00,86.507
1085.50,86.547
1086.00,86.566
1086.50,86.574
1087.00,86.577
1087.50,86.644
1088.00,86.640
1088.50,86.637
1089.00,86.675
1089.50,86.707
1090.00,86.731
1090.50,86.752
1091.00,86.820
1091.50,86.811
1092.00,86.842
1092.50,86.851
1093.00,86.875
1093.50,86.925
1094.00,86.952
1094.50,86.983
1095.00,87.012
1095.50,87.079
1096.00,87.066
1096.50,87.105
1097.00,87.128
1097.50,87.157
1098.00,87.172
1098.50,87.201
1099.00,87.194
1099.50,87.187
1100.00,87.215
1100.50,87.202
1101.00,87.212
1101.50,87.234
1102.00,87.242
1102.50,87.240
1103.00,87.233
1103.50,87.226
1104.00,87.228
1104.50,87.227
1105.00,87.263
1105.50,87.247
1106.00,87.235
1106.50,87.244
1107.00,87.240
1107.50,87.239
1108.00,87.267
1108.50,87.251
1109.00,87.224
1109.50,87.287
1110.00,87.274
1110.50,87.285
1111.00,87.283
1111.50,87.285
1112.00,87.318
1112.50,87.312
1113.00,87.310
1113.50,87.335
1114.00,87.370
1114.50,87.377
1115.00,87.415
1115.50,87.403
1116.00,87.413
1116.50,87.438
1117.00,87.477
1117.50,87.484
1118.00,87.529
1118.50,87.559
1119.00,87.531
1119.50,87.570
1120.00,87.580
1120.50,87.606
1121.00,87.629
1121.50,87.631
1122.00,87.655
1122.50,87.663
1123.00,87.711
1123.50,87.632
1124.00,87.736
1124.50,87.799
1125.00,87.734
1125.50,87.791
1126.00,87.798
1126.50,87.812
1127.00,87.868
1127.50,87.827
1128.00,87.882
1128.50,87.886
1129.00,87.908
1129.50,87.884
1130.00,87.921
1130.50,87.933
1131.00,87.975
1131.50,87.959
1132.00,87.958
1132.50,88.011
1133.00,87.993
1133.50,88.006
1134.00,88.083
1134.50,87.986
1135.00,88.050
1135.50,88.111
1136.00,88.053
1136.50,88.102
1137.00,88.126
1137.50,88.118
1138.00,88.163
1138.50,88.167
1139.00,88.164
1139.50,88.207
1140.00,88.219
1140.50,88.217
1141.00,88.258
1141.50,88.262
1142.00,88.264
1142.50,88.281
1143.00,88.302
1143.50,88.288
1144.00,88.257
1144.50,88.357
1145.00,88.366
1145.50,88.369
1146.00,88.407
1146.50,88.433
1147.00,88.414
1147.50,88.461
1148.00,88.494
1148.50,88.468
1149.00,88.532
1149.50,88.544
1150.00,88.560
1150.50,88.586
1151.00,88.587
1151.50,88.591
1152.00,88.633
1152.50,88.623
1153.00,88.621
1153.50,88.663
1154.00,88.679
1154.50,88.694
1155.00,88.697
1155.50,88.695
1156.00,88.726
1156.50,88.755
1157.00,88.761
1157.50,88.738
1158.00,88.791
1158.50,88.793
1159.00,88.786
1159.50,88.824
1160.00,88.859
1160.50,88.859
1161.00,88.871
1161.50,88.880
1162.00,88.883
1162.50,88.886
1163.00,88.916
1163.50,88.870
1164.00,88.942
1164.50,88.953
1165.00,88.979
1165.50,89.003
1166.00,89.031
1166.50,89.026
1167.00,89.065
1167.50,89.073
1168.00,89.082
1168.50,89.082
1169.00,89.104
1169.50,89.115
1170.00,89.151
1170.50,89.204
1171.00,89.178
1171.50,89.244
1172.00,89.204
1172.50,89.236
1173.00,89.216
1173.50,89.247
1174.00,89.274
1174.50,89.250
1175.00,89.287
1175.50,89.306
1176.00,89.331
1176.50,89.312
1177.00,89.338
1177.50,89.368
1178.00,89.353
1178.50,89.377
1179.00,89.355
1179.50,89.404
1180.00,89.422
1180.50,89.388
1181.00,89.413
1181.50,89.412
1182.00,89.410
1182.50,89.424
1183.00,89.449
1183.50,89.436
1184.00,89.443
1184.50,89.462
1185.00,89.473
1185.50,89.479
1186.00,89.484
1186.50,89.499
1187.00,89.501
1187.50,89.491
1188.00,89.526
1188.50,89.558
1189.00,89.548
1189.50,89.558
1190.00,89.563
1190.50,89.585
1191.00,89.626
1191.50,89.613
1192.00,89.628
1192.50,89.627
1193.00,89.652
1193.50,89.656
1194.00,89.680
1194.50,89.726
1195.00,89.716
1195.50,89.749
1196.00,89.746
1196.50,89.791
1197.00,89.792
1197.50,89.828
1198.00,89.835
1198.50,89.842
1199.00,89.865
1199.50,89.881
1200.00,89.891
1200.50,89.893
1201.00,89.932
1201.50,89.958
1202.00,89.965
1202.50,89.973
1203.00,89.988
1203.50,90.035
1204.00,89.997
1204.50,90.024
1205.00,90.043
1205.50,90.069
1206.00,90.075
1206.50,90.102
1207.00,90.082
1207.50,90.091
1208.00,90.122
1208.50,90.118
1209.00,90.122
1209.50,90.138
1210.00,90.146
1210.50,90.189
1211.00,90.104
1211.50,90.126
1212.00,90.152
1212.50,90.131
1213.00,90.164
1213.50,90.140
1214.00,90.149
1214.50,90.161
1215.00,90.176
1215.50,90.173
1216.00,90.144
1216.50,90.147
1217.00,90.150
1217.50,90.166
1218.00,90.167
1218.50,90.149
1219.00,90.158
1219.50,90.164
1220.00,90.155
1220.50,90.173
1221.00,90.179
1221.50,90.161
1222.00,90.206
1222.50,90.209
1223.00,90.205
1223.50,90.194
1224.00,90.219
1224.50,90.224
1225.00,90.242
1225.50,90.240
1226.00,90.269
1226.50,90.256
1227.00,90.276
1227.50,90.343
1228.00,90.316
1228.50,90.337
1229.00,90.353
1229.50,90.376
1230.00,90.399
1230.50,90.418
1231.00,90.432
1231.50,90.454
1232.00,90.460
1232.50,90.505
1233.00,90.484
1233.50,90.520
1234.00,90.507
1234.50,90.534
1235.00,90.574
1235.50,90.592
1236.00,90.603
1236.50,90.620
1237.00,90.661
1237.50,90.666
1238.00,90.666
1238.50,90.699
1239.00,90.692
1239.50,90.731
1240.00,90.709
1240.50,90.736
1241.00,90.743
1241.50,90.761
1242.00,90.789
1242.50,90.764
1243.00,90.780
1243.50,90.797
1244.00,90.792
1244.50,90.772
1245.00,90.792
1245.50,90.784
1246.00,90.776
1246.50,90.795
1247.00,90.773
1247.50,90.775
1248.00,90.774
1248.50,90.791
1249.00,90.773
1249.50,90.788
1250.00,90.758
1250.50,90.739
1251.00,90.745
1251.50,90.736
1252.00,90.752
1252.50,90.729
1253.00,90.721
1253.50,90.726
1254.00,90.724
1254.50,90.717
1255.00,90.722
1255.50,90.695
1256.00,90.699
1256.50,90.703
1257.00,90.680
1257.50,90.682
1258.00,90.682
1258.50,90.697
1259.00,90.668
1259.50,90.693
1260.00,90.721
1260.50,90.719
1261.00,90.724
1261.50,90.732
1262.00,90.740
1262.50,90.741
1263.00,90.746
1263.50,90.762
1264.00,90.768
1264.50,90.785
1265.00,90.784
1265.50,90.841
1266.00,90.828
1266.50,90.907
1267.00,90.865
1267.50,90.876
1268.00,90.956
1268.50,90.932
1269.00,90.992
1269.50,90.964
1270.00,90.979
1270.50,91.076
1271.00,91.030
1271.50,91.060
1272.00,91.080
1272.50,91.113
1273.00,91.115
1273.50,91.125
1274.00,91.143
1274.50,91.134
1275.00,91.178
1275.50,91.162
1276.00,91.225
1276.50,91.216
1277.00,91.254
1277.50,91.256
1278.00,91.244
1278.50,91.276
1279.00,91.286
1279.50,91.271
1280.00,91.268
1280.50,91.284
1281.00,91.256
1281.50,91.282
1282.00,91.263
1282.50,91.257
1283.00,91.270
1283.50,91.238
1284.00,91.253
1284.50,91.226
1285.00,91.210
1285.50,91.220
1286.00,91.196
1286.50,91.188
1287.00,91.179
1287.50,91.149
1288.00,91.172
1288.50,91.137
1289.00,91.107
1289.50,91.106
1290.00,91.099
1290.50,91.093
1291.00,91.078
1291.50,91.061
1292.00,91.041
1292.50,91.050
1293.00,91.026
1293.50,91.012
1294.00,90.997
1294.50,90.984
1295.00,90.978
1295.50,90.967
1296.00,90.946
1296.50,90.967
1297.00,90.957
1297.50,90.949
1298.00,90.990
1298.50,90.963
1299.00,90.958
1299.50,90.984
1300.00,90.979
1300.50,90.972
1301.00,90.963
1301.50,91.002
1302.00,91.009
1302.50,91.029
1303.00,91.013
1303.50,91.054
1304.00,91.068
1304.50,91.092
1305.00,91.105
1305.50,91.153
1306.00,91.139
1306.50,91.139
1307.00,91.196
1307.50,91.195
1308.00,91.188
1308.50,91.226
1309.00,91.267
1309.50,91.265
1310.00,91.279
1310.50,91.277
1311.00,91.333
1311.50,91.323
1312.00,91.337
1312.50,91.373
1313.00,91.385
1313.50,91.391
1314.00,91.417
1314.50,91.397
1315.00,91.397
1315.50,91.438
1316.00,91.434
1316.50,91.464
1317.00,91.448
1317.50,91.442
1318.00,91.456
1318.50,91.498
1319.00,91.436
1319.50,91.454
1320.00,91.416
1320.50,91.236
1321.00,91.266
1321.50,91.247
1322.00,91.245
1322.50,91.213
1323.00,91.209
1323.50,91.245
1324.00,91.194
1324.50,91.198
1325.00,91.183
1325.50,91.193
1326.00,91.160
1326.50,91.111
1327.00,91.139
1327.50,91.104
1328.00,91.128
1328.50,91.099
1329.00,91.108
1329.50,91.115
1330.00,91.071
1330.50,91.098
1331.00,91.097
1331.50,91.110
1332.00,91.093
1332.50,91.080
1333.00,91.080
1333.50,91.098
1334.00,91.128
1334.50,91.108
1335.00,91.124
1335.50,91.146
1336.00,91.099
1336.50,91.199
1337.00,91.171
1337.50,91.143
1338.00,91.159
1338.50,91.155
1339.00,91.236
1339.50,91.170
1340.00,91.183
1340.50,91.193
1341.00,91.168
1341.50,91.179
1342.00,91.201
1342.50,91.194
1343.00,91.171
1343.50,91.178
1344.00,91.179
1344.50,91.131
1345.00,91.177
1345.50,91.134
1346.00,91.128
1346.50,91.103
1347.00,91.183
1347.50,91.088
1348.00,91.140
1348.50,91.089
1349.00,91.108
1349.50,91.205
1350.00,91.000
1350.50,91.105
1351.00,91.070
1351.50,91.104
1352.00,91.114
1352.50,91.190
1353.00,91.207
1353.50,91.145
1354.00,91.301
1354.50,91.137
1355.00,91.347
1355.50,91.190
1356.00,90.844
1356.50,91.446
1357.00,91.298
1357.50,91.234
1358.00,91.327
1358.50,91.031
1359.00,91.352
1359.50,91.238
1360.00,91.117
1360.50,91.278
1361.00,91.284
1361.50,91.334
1362.00,91.187
1362.50,91.220
1363.00,91.193
1363.50,91.027
1364.00,91.906
1364.50,90.843
1365.00,91.041
1365.50,91.084
1366.00,91.056
1366.50,90.889
1367.00,91.262
1367.50,90.670
1368.00,91.429
1368.50,90.775
1369.00,91.026
1369.50,90.849
1370.00,90.615
1370.50,90.941
1371.00,90.648
1371.50,91.120
1372.00,90.457
1372.50,90.739
1373.00,90.686
1373.50,90.667
1374.00,90.588
1374.50,90.577
1375.00,90.498
1375.50,90.601
1376.00,90.262
1376.50,90.482
1377.00,90.153
1377.50,90.148
1378.00,89.624
1378.50,89.839
1379.00,90.105
1379.50,89.872
1380.00,90.728
1380.50,89.547
1381.00,89.810
1381.50,89.647
1382.00,90.726
1382.50,88.939
1383.00,89.909
1383.50,89.731
1384.00,89.521
1384.50,89.869
1385.00,89.365
1385.50,89.498
1386.00,89.520
1386.50,89.387
1387.00,89.385
1387.50,89.696
1388.00,88.983
1388.50,89.181
1389.00,89.222
1389.50,89.098
1390.00,89.052
1390.50,88.947
1391.00,88.887
1391.50,88.777
1392.00,89.562
1392.50,88.646
1393.00,88.737
1393.50,88.595
1394.00,88.364
1394.50,88.740
1395.00,88.703
1395.50,87.844
1396.00,89.264
1396.50,88.121
1397.00,88.268
1397.50,88.274
1398.00,88.210
1398.50,87.960
1399.00,88.472
1399.50,87.880
1400.00,88.021
1400.50,87.757
1401.00,88.141
1401.50,87.746
1402.00,87.805
1402.50,87.977
1403.00,87.812
1403.50,87.836
1404.00,87.426
1404.50,88.784
1405.00,87.089
1405.50,87.713
1406.00,87.650
1406.50,87.903
1407.00,87.773
1407.50,87.499
1408.00,87.679
1408.50,87.699
1409.00,88.013
1409.50,87.475
1410.00,87.654
1410.50,87.722
1411.00,87.683
1411.50,87.760
1412.00,87.784
1412.50,87.616
1413.00,87.698
1413.50,87.934
1414.00,87.734
1414.50,87.570
1415.00,87.753
1415.50,87.724
1416.00,87.747
1416.50,87.724
1417.00,87.865
1417.50,87.711
1418.00,87.738
1418.50,87.946
1419.00,87.770
1419.50,87.781
1420.00,87.835
1420.50,87.827
1421.00,87.870
1421.50,87.806
1422.00,87.880
1422.50,87.878
1423.00,87.869
1423.50,87.916
1424.00,87.856
1424.50,87.932
1425.00,87.955
1425.50,87.932
1426.00,87.974
1426.50,88.011
1427.00,88.021
1427.50,88.090
1428.00,88.047
1428.50,88.123
1429.00,88.152
1429.50,88.180
1430.00,88.170
1430.50,88.308
1431.00,88.319
1431.50,88.234
1432.00,88.421
1432.50,88.311
1433.00,88.442
1433.50,88.475
1434.00,88.440
1434.50,88.553
1435.00,88.624
1435.50,88.731
1436.00,88.714
1436.50,88.778
1437.00,88.874
1437.50,88.864
1438.00,88.854
1438.50,88.934
1439.00,89.108
1439.50,89.005
1440.00,89.129
1440.50,89.096
1441.00,89.328
1441.50,89.190
1442.00,89.300
1442.50,89.432
1443.00,89.350
1443.50,89.449
1444.00,89.495
1444.50,89.450
1445.00,89.725
1445.50,89.549
1446.00,89.596
1446.50,89.718
1447.00,89.672
1447.50,89.783
1448.00,89.788
1448.50,89.778
1449.00,89.811
1449.50,89.825
1450.00,89.942
1450.50,89.841
1451.00,89.977
1451.50,89.896
1452.00,89.954
1452.50,89.975
1453.00,89.914
1453.50,89.933
1454.00,89.937
1454.50,89.967
1455.00,90.027
1455.50,89.899
1456.00,89.958
1456.50,89.900
1457.00,89.931
1457.50,89.903
1458.00,89.887
1458.50,89.880
1459.00,89.870
1459.50,89.816
1460.00,89.843
1460.50,89.721
1461.00,89.781
1461.50,89.735
1462.00,89.681
1462.50,89.669
1463.00,89.710
1463.50,89.586
1464.00,89.590
1464.50,89.559
1465.00,89.620
1465.50,89.460
1466.00,89.494
1466.50,89.457
1467.00,89.453
1467.50,89.397
1468.00,89.378
1468.50,89.338
1469.00,89.288
1469.50,89.421
1470.00,89.176
1470.50,89.320
1471.00,89.205
1471.50,89.140
1472.00,89.175
1472.50,89.150
1473.00,89.102
1473.50,89.134
1474.00,89.099
1474.50,89.109
1475.00,89.087
1475.50,89.111
1476.00,89.094
1476.50,89.066
1477.00,89.089
1477.50,89.087
1478.00,89.042
1478.50,89.052
1479.00,89.074
1479.50,89.080
1480.00,89.099
1480.50,89.110
1481.00,89.113
1481.50,89.175
1482.00,89.156
1482.50,89.188
1483.00,89.202
1483.50,89.228
1484.00,89.301
1484.50,89.312
1485.00,89.321
1485.50,89.356
1486.00,89.373
1486.50,89.455
1487.00,89.451
1487.50,89.471
1488.00,89.519
1488.50,89.542
1489.00,89.566
1489.50,89.626
1490.00,89.679
1490.50,89.704
1491.00,89.749
1491.50,89.765
1492.00,89.804
1492.50,89.871
1493.00,89.847
1493.50,89.861
1494.00,89.959
1494.50,89.933
1495.00,89.945
1495.50,90.003
1496.00,89.992
1496.50,90.005
1497.00,90.038
1497.50,90.074
1498.00,90.078
1498.50,90.109
1499.00,90.133
1499.50,90.125
1500.00,90.178
1500.50,90.133
1501.00,90.157
1501.50,90.195
1502.00,90.212
1502.50,90.168
1503.00,90.197
1503.50,90.173
1504.00,90.144
1504.50,90.180
1505.00,90.165
1505.50,90.148
1506.00,90.152
1506.50,90.112
1507.00,90.088
1507.50,90.079
1508.00,90.055
1508.50,90.050
1509.00,90.010
1509.50,90.026
1510.00,89.944
1510.50,89.933
1511.00,89.934
1511.50,89.881
1512.00,89.865
1512.50,89.832
1513.00,89.770
1513.50,89.757
1514.00,89.757
1514.50,89.637
1515.00,89.656
1515.50,89.612
1516.00,89.557
1516.50,89.588
1517.00,89.534
1517.50,89.446
1518.00,89.438
1518.50,89.418
1519.00,89.338
1519.50,89.338
1520.00,89.274
1520.50,89.258
1521.00,89.212
1521.50,89.203
1522.00,89.170
1522.50,89.147
1523.00,89.095
1523.50,89.028
1524.00,89.082
1524.50,89.059
1525.00,88.959
1525.50,88.980
1526.00,88.901
1526.50,88.921
1527.00,88.935
1527.50,88.904
1528.00,88.870
1528.50,88.867
1529.00,88.837
1529.50,88.870
1530.00,88.847
1530.50,88.890
1531.00,88.850
1531.50,88.890
1532.00,88.839
1532.50,88.842
1533.00,88.836
1533.50,88.893
1534.00,88.850
1534.50,88.904
1535.00,88.909
1535.50,88.915
1536.00,88.979
1536.50,88.946
1537.00,88.969
1537.50,89.002
1538.00,89.032
1538.50,89.054
1539.00,89.080
1539.50,89.108
1540.00,89.137
1540.50,89.121
1541.00,89.207
1541.50,89.211
1542.00,89.236
1542.50,89.277
1543.00,89.294
1543.50,89.298
1544.00,89.327
1544.50,89.360
1545.00,89.378
1545.50,89.432
1546.00,89.472
1546.50,89.425
1547.00,89.513
1547.50,89.515
1548.00,89.551
1548.50,89.574
1549.00,89.604
1549.50,89.596
1550.00,89.619
1550.50,89.687
1551.00,89.666
1551.50,89.723
1552.00,89.707
1552.50,89.755
1553.00,89.770
1553.50,89.753
1554.00,89.734
1554.50,89.735
1555.00,89.729
1555.50,89.740
1556.00,89.763
1556.50,89.763
1557.00,89.773
1557.50,89.752
1558.00,89.749
1558.50,89.718
1559.00,89.701
1559.50,89.710
1560.00,89.684
1560.50,89.660
1561.00,89.629
1561.50,89.615
1562.00,89.600
1562.50,89.564
1563.00,89.536
1563.50,89.517
1564.00,89.496
1564.50,89.442
1565.00,89.441
1565.50,89.378
1566.00,89.384
1566.50,89.343
1567.00,89.312
1567.50,89.241
1568.00,89.243
1568.50,89.182
1569.00,89.176
1569.50,89.109
1570.00,89.086
1570.50,89.050
1571.00,89.025
1571.50,88.972
1572.00,88.917
1572.50,88.862
1573.00,88.869
1573.50,88.801
1574.00,88.762
1574.50,88.757
1575.00,88.719
1575.50,88.677
1576.00,88.619
1576.50,88.603
1577.00,88.566
1577.50,88.576
1578.00,88.536
1578.50,88.485
1579.00,88.470
1579.50,88.479
1580.00,88.431
1580.50,88.396
1581.00,88.394
1581.50,88.371
1582.00,88.347
1582.50,88.340
1583.00,88.337
1583.50,88.313
1584.00,88.324
1584.50,88.311
1585.00,88.317
1585.50,88.333
1586.00,88.305
1586.50,88.321
1587.00,88.348
1587.50,88.343
1588.00,88.443
1588.50,88.477
1589.00,88.486
1589.50,88.497
1590.00,88.483
1590.50,88.532
1591.00,88.503
1591.50,88.489
1592.00,88.473
1592.50,88.463
1593.00,88.455
1593.50,88.473
1594.00,88.423
1594.50,88.444
1595.00,88.390
1595.50,88.439
1596.00,88.415
1596.50,88.429
1597.00,88.442
1597.50,88.459
1598.00,88.433
1598.50,88.479
1599.00,88.504
1599.50,88.488
1600.00,88.548
