"sample_modry - RawData"
"Wavelength nm.","T%"
200.00,0.243
200.50,-0.046
201.00,0.141
201.50,0.020
202.00,0.204
202.50,0.103
203.00,0.157
203.50,-0.005
204.00,0.147
204.50,0.063
205.00,0.155
205.50,0.054
206.00,0.081
206.50,0.056
207.00,0.065
207.50,0.066
208.00,0.061
208.50,-0.003
209.00,0.003
209.50,0.005
210.00,0.122
210.50,0.078
211.00,-0.006
211.50,0.043
212.00,0.022
212.50,0.019
213.00,0.021
213.50,0.058
214.00,0.076
214.50,0.015
215.00,0.085
215.50,-0.009
216.00,0.049
216.50,0.074
217.00,0.073
217.50,0.019
218.00,0.033
218.50,0.037
219.00,0.027
219.50,0.037
220.00,0.036
220.50,0.050
221.00,0.061
221.50,0.044
222.00,0.018
222.50,0.043
223.00,0.038
223.50,0.017
224.00,0.036
224.50,0.041
225.00,0.036
225.50,0.027
226.00,0.025
226.50,0.011
227.00,0.030
227.50,0.034
228.00,0.044
228.50,0.059
229.00,0.042
229.50,0.032
230.00,0.016
230.50,0.047
231.00,0.029
231.50,0.040
232.00,0.040
232.50,0.036
233.00,0.040
233.50,0.042
234.00,0.027
234.50,0.038
235.00,0.033
235.50,0.018
236.00,0.035
236.50,0.030
237.00,0.021
237.50,0.041
238.00,0.042
238.50,0.036
239.00,0.021
239.50,0.049
240.00,0.025
240.50,0.039
241.00,0.038
241.50,0.042
242.00,0.038
242.50,0.032
243.00,0.039
243.50,0.031
244.00,0.047
244.50,0.052
245.00,0.039
245.50,0.034
246.00,0.045
246.50,0.027
247.00,0.044
247.50,0.029
248.00,0.042
248.50,0.030
249.00,0.040
249.50,0.034
250.00,0.031
250.50,0.046
251.00,0.044
251.50,0.029
252.00,0.029
252.50,0.045
253.00,0.031
253.50,0.021
254.00,0.044
254.50,0.020
255.00,0.030
255.50,0.053
256.00,0.033
256.50,0.021
257.00,0.044
257.50,0.033
258.00,0.019
258.50,0.021
259.00,0.041
259.50,0.029
260.00,0.043
260.50,0.037
261.00,0.040
261.50,0.033
262.00,0.040
262.50,0.030
263.00,0.043
263.50,0.026
264.00,0.041
264.50,0.018
265.00,0.035
265.50,0.025
266.00,0.038
266.50,0.025
267.00,0.034
267.50,0.035
268.00,0.036
268.50,0.029
269.00,0.027
269.50,0.029
270.00,0.036
270.50,0.029
271.00,0.038
271.50,0.036
272.00,0.035
272.50,0.036
273.00,0.035
273.50,0.041
274.00,0.040
274.50,0.030
275.00,0.049
275.50,0.033
276.00,0.024
276.50,0.033
277.00,0.036
277.50,0.038
278.00,0.022
278.50,0.020
279.00,0.014
279.50,0.034
280.00,0.036
280.50,0.028
281.00,0.034
281.50,0.032
282.00,0.035
282.50,0.015
283.00,0.026
283.50,0.040
284.00,0.032
284.50,0.024
285.00,0.025
285.50,0.024
286.00,0.029
286.50,0.047
287.00,0.027
287.50,0.026
288.00,0.026
288.50,0.041
289.00,0.020
289.50,0.029
290.00,0.042
290.50,0.038
291.00,0.034
291.50,0.026
292.00,0.016
292.50,0.034
293.00,0.022
293.50,0.020
294.00,0.044
294.50,0.035
295.00,0.009
295.50,0.015
296.00,0.026
296.50,0.040
297.00,0.037
297.50,0.032
298.00,0.031
298.50,0.028
299.00,0.029
299.50,0.030
300.00,0.026
300.50,0.036
301.00,0.040
301.50,0.027
302.00,0.042
302.50,0.017
303.00,0.019
303.50,0.030
304.00,0.021
304.50,0.018
305.00,0.036
305.50,0.025
306.00,0.009
306.50,0.015
307.00,0.042
307.50,0.037
308.00,0.020
308.50,0.037
309.00,0.020
309.50,0.004
310.00,0.043
310.50,0.029
311.00,0.023
311.50,0.026
312.00,0.046
312.50,0.008
313.00,0.010
313.50,0.043
314.00,0.028
314.50,0.020
315.00,0.035
315.50,0.029
316.00,0.036
316.50,0.035
317.00,0.029
317.50,0.025
318.00,0.042
318.50,0.013
319.00,0.013
319.50,0.008
320.00,0.048
320.50,0.033
321.00,0.010
321.50,0.041
322.00,0.025
322.50,0.019
323.00,0.032
323.50,0.032
324.00,0.024
324.50,0.023
325.00,0.042
325.50,0.006
326.00,0.039
326.50,0.018
327.00,0.032
327.50,0.020
328.00,0.048
328.50,0.027
329.00,0.010
329.50,0.024
330.00,0.036
330.50,0.040
331.00,0.044
331.50,0.025
332.00,0.020
332.50,0.020
333.00,0.047
333.50,0.036
334.00,-0.003
334.50,0.041
335.00,0.016
335.50,0.041
336.00,0.008
336.50,0.041
337.00,0.006
337.50,0.013
338.00,0.044
338.50,0.002
339.00,0.002
339.50,0.013
340.00,0.011
340.50,0.287
341.00,0.230
341.50,0.056
342.00,-0.006
342.50,-0.089
343.00,-0.110
343.50,-0.050
344.00,0.155
344.50,-0.042
345.00,0.070
345.50,0.090
346.00,0.213
346.50,0.315
347.00,0.513
347.50,0.593
348.00,0.877
348.50,1.240
349.00,1.559
349.50,2.007
350.00,2.722
350.50,3.265
351.00,3.653
351.50,3.932
352.00,3.966
352.50,3.749
353.00,2.495
353.50,0.906
354.00,0.319
354.50,0.365
355.00,0.421
355.50,0.667
356.00,0.488
356.50,0.374
357.00,0.341
357.50,0.896
358.00,1.336
358.50,1.465
359.00,1.212
359.50,0.744
360.00,1.214
360.50,2.113
361.00,2.492
361.50,1.569
362.00,0.962
362.50,3.942
363.00,4.914
363.50,4.850
364.00,5.922
364.50,8.720
365.00,16.014
365.50,22.863
366.00,28.064
366.50,31.766
367.00,29.499
367.50,27.987
368.00,34.697
368.50,40.463
369.00,42.386
369.50,43.856
370.00,44.952
370.50,45.556
371.00,45.780
371.50,46.218
372.00,46.531
372.50,46.967
373.00,46.845
373.50,47.450
374.00,47.748
374.50,47.908
375.00,48.138
375.50,48.314
376.00,48.345
376.50,48.552
377.00,48.983
377.50,49.042
378.00,49.154
378.50,49.424
379.00,49.222
379.50,49.293
380.00,49.601
380.50,49.730
381.00,49.861
381.50,49.635
382.00,50.140
382.50,49.941
383.00,50.159
383.50,50.212
384.00,50.448
384.50,50.386
385.00,48.550
385.50,49.427
386.00,50.624
386.50,50.563
387.00,50.440
387.50,49.936
388.00,50.560
388.50,51.338
389.00,51.513
389.50,51.708
390.00,51.854
390.50,51.869
391.00,52.095
391.50,52.115
392.00,52.201
392.50,52.365
393.00,52.471
393.50,52.687
394.00,52.851
394.50,52.798
395.00,53.074
395.50,53.102
396.00,53.209
396.50,53.098
397.00,53.280
397.50,53.328
398.00,53.553
398.50,53.706
399.00,53.655
399.50,53.794
400.00,53.927
400.50,54.049
401.00,53.978
401.50,54.162
402.00,54.067
402.50,54.221
403.00,54.488
403.50,54.536
404.00,54.594
404.50,54.537
405.00,54.714
405.50,54.854
406.00,54.846
406.50,54.885
407.00,54.964
407.50,54.938
408.00,54.923
408.50,55.205
409.00,55.015
409.50,55.295
410.00,55.487
410.50,55.611
411.00,55.713
411.50,55.572
412.00,55.785
412.50,56.116
413.00,56.084
413.50,56.212
414.00,56.078
414.50,56.123
415.00,56.138
415.50,56.529
416.00,56.465
416.50,56.345
417.00,56.568
417.50,56.369
418.00,56.135
418.50,56.456
419.00,56.651
419.50,56.632
420.00,56.720
420.50,56.704
421.00,56.799
421.50,56.673
422.00,56.523
422.50,56.146
423.00,53.160
423.50,48.949
424.00,54.071
424.50,55.802
425.00,54.561
425.50,54.645
426.00,56.153
426.50,56.656
427.00,56.786
427.50,57.105
428.00,57.429
428.50,57.417
429.00,57.239
429.50,57.297
430.00,57.493
430.50,56.910
431.00,56.727
431.50,56.885
432.00,56.658
432.50,56.204
433.00,55.007
433.50,45.935
434.00,37.751
434.50,51.661
435.00,55.604
435.50,55.373
436.00,50.550
436.50,43.624
437.00,29.428
437.50,33.145
438.00,49.118
438.50,55.220
439.00,56.395
439.50,57.639
440.00,58.330
440.50,58.979
441.00,59.387
441.50,59.017
442.00,57.301
442.50,57.205
443.00,59.690
443.50,60.644
444.00,60.918
444.50,60.865
445.00,61.045
445.50,61.246
446.00,61.222
446.50,61.266
447.00,61.455
447.50,61.278
448.00,61.249
448.50,61.486
449.00,61.395
449.50,61.492
450.00,61.779
450.50,61.737
451.00,61.749
451.50,61.739
452.00,61.689
452.50,61.628
453.00,61.827
453.50,61.578
454.00,61.520
454.50,61.576
455.00,61.607
455.50,61.321
456.00,61.061
456.50,60.768
457.00,60.441
457.50,60.354
458.00,59.957
458.50,59.398
459.00,58.655
459.50,58.107
460.00,57.287
460.50,56.220
461.00,54.457
461.50,52.110
462.00,49.009
462.50,45.454
463.00,44.342
463.50,46.264
464.00,48.767
464.50,49.377
465.00,47.804
465.50,46.226
466.00,45.802
466.50,44.887
467.00,43.052
467.50,42.203
468.00,42.641
468.50,43.257
469.00,43.884
469.50,43.689
470.00,42.742
470.50,41.015
471.00,37.991
471.50,35.521
472.00,40.456
472.50,45.927
473.00,47.093
473.50,46.545
474.00,46.247
474.50,45.420
475.00,40.541
475.50,28.648
476.00,19.050
476.50,27.053
477.00,42.380
477.50,50.513
478.00,52.865
478.50,51.815
479.00,48.773
479.50,49.398
480.00,49.753
480.50,47.826
481.00,43.775
481.50,36.586
482.00,31.723
482.50,34.012
483.00,41.982
483.50,46.905
484.00,48.126
484.50,50.248
485.00,48.496
485.50,50.677
486.00,56.834
486.50,60.183
487.00,61.422
487.50,62.272
488.00,62.822
488.50,62.462
489.00,63.016
489.50,63.630
490.00,63.953
490.50,63.913
491.00,62.246
491.50,61.548
492.00,63.437
492.50,64.482
493.00,64.950
493.50,64.890
494.00,65.137
494.50,64.921
495.00,64.729
495.50,64.497
496.00,64.540
496.50,64.229
497.00,63.736
497.50,63.783
498.00,64.394
498.50,64.434
499.00,64.472
499.50,63.917
500.00,64.036
500.50,63.695
501.00,63.462
501.50,63.020
502.00,62.662
502.50,62.099
503.00,61.675
503.50,60.741
504.00,59.631
504.50,58.476
505.00,56.934
505.50,55.189
506.00,53.516
506.50,50.979
507.00,48.329
507.50,46.240
508.00,43.699
508.50,40.097
509.00,36.448
509.50,33.039
510.00,30.363
510.50,27.569
511.00,24.900
511.50,22.773
512.00,21.820
512.50,21.743
513.00,22.292
513.50,22.726
514.00,23.440
514.50,25.262
515.00,28.048
515.50,29.575
516.00,28.641
516.50,25.546
517.00,21.786
517.50,21.143
518.00,24.501
518.50,26.172
519.00,23.351
519.50,19.075
520.00,15.001
520.50,14.100
521.00,15.047
521.50,14.214
522.00,11.161
522.50,10.201
523.00,15.339
523.50,23.918
524.00,29.009
524.50,29.578
525.00,31.114
525.50,34.727
526.00,38.018
526.50,39.601
527.00,39.716
527.50,36.766
528.00,29.562
528.50,22.724
529.00,24.414
529.50,27.152
530.00,19.303
530.50,18.557
531.00,30.483
531.50,33.754
532.00,27.423
532.50,17.038
533.00,14.831
533.50,13.375
534.00,23.657
534.50,35.233
535.00,37.826
535.50,32.487
536.00,29.010
536.50,33.020
537.00,36.285
537.50,35.916
538.00,34.641
538.50,33.773
539.00,39.217
539.50,39.833
540.00,35.218
540.50,27.304
541.00,24.779
541.50,29.971
542.00,40.265
542.50,47.664
543.00,44.052
543.50,42.198
544.00,49.662
544.50,56.755
545.00,60.379
545.50,62.937
546.00,64.830
546.50,65.817
547.00,66.292
547.50,66.556
548.00,66.709
548.50,66.871
549.00,66.847
549.50,66.737
550.00,66.479
550.50,66.227
551.00,65.042
551.50,64.667
552.00,64.572
552.50,63.521
553.00,64.156
553.50,64.678
554.00,64.033
554.50,63.534
555.00,63.006
555.50,62.702
556.00,63.254
556.50,63.193
557.00,63.060
557.50,62.971
558.00,62.607
558.50,62.019
559.00,61.003
559.50,59.805
560.00,58.481
560.50,59.436
561.00,60.917
561.50,61.266
562.00,60.680
562.50,59.142
563.00,57.842
563.50,57.980
564.00,58.492
564.50,58.433
565.00,58.910
565.50,58.435
566.00,57.333
566.50,56.969
567.00,57.212
567.50,57.033
568.00,56.586
568.50,56.438
569.00,56.453
569.50,56.114
570.00,55.139
570.50,54.192
571.00,53.402
571.50,52.684
572.00,52.441
572.50,51.147
573.00,49.474
573.50,48.261
574.00,47.534
574.50,46.529
575.00,44.521
575.50,42.040
576.00,39.186
576.50,35.763
577.00,32.213
577.50,28.664
578.00,24.785
578.50,20.281
579.00,16.019
579.50,12.966
580.00,10.985
580.50,9.097
581.00,6.893
581.50,6.868
582.00,6.175
582.50,4.825
583.00,3.190
583.50,2.174
584.00,1.813
584.50,1.880
585.00,1.850
585.50,1.303
586.00,0.730
586.50,0.361
587.00,0.259
587.50,0.442
588.00,0.403
588.50,0.168
589.00,0.078
589.50,0.229
590.00,0.904
590.50,1.234
591.00,0.827
591.50,0.359
592.00,0.128
592.50,0.034
593.00,0.021
593.50,0.016
594.00,0.026
594.50,0.019
595.00,0.017
595.50,0.025
596.00,0.029
596.50,0.044
597.00,0.097
597.50,0.051
598.00,0.028
598.50,0.040
599.00,0.171
599.50,0.812
600.00,1.817
600.50,2.519
601.00,2.940
601.50,3.451
602.00,5.269
602.50,8.644
603.00,11.900
603.50,13.160
604.00,12.291
604.50,10.816
605.00,11.134
605.50,14.324
606.00,20.821
606.50,27.742
607.00,34.502
607.50,39.037
608.00,41.080
608.50,41.010
609.00,39.269
609.50,37.376
610.00,37.146
610.50,38.434
611.00,42.000
611.50,47.615
612.00,53.726
612.50,58.490
613.00,61.452
613.50,63.304
614.00,64.361
614.50,65.183
615.00,65.842
615.50,66.532
616.00,67.043
616.50,67.578
617.00,67.811
617.50,68.184
618.00,68.387
618.50,68.439
619.00,68.653
619.50,68.696
620.00,68.781
620.50,68.783
621.00,68.793
621.50,69.060
622.00,69.084
622.50,69.128
623.00,68.857
623.50,68.871
624.00,68.921
624.50,68.430
625.00,67.160
625.50,63.706
626.00,56.470
626.50,56.642
627.00,64.233
627.50,66.676
628.00,67.597
628.50,68.005
629.00,67.811
629.50,67.430
630.00,65.048
630.50,60.428
631.00,62.697
631.50,66.122
632.00,67.151
632.50,67.301
633.00,67.288
633.50,67.201
634.00,64.919
634.50,65.533
635.00,66.537
635.50,66.607
636.00,66.492
636.50,66.762
637.00,66.446
637.50,66.297
638.00,66.843
638.50,67.582
639.00,68.203
639.50,68.761
640.00,68.632
640.50,68.037
641.00,66.809
641.50,67.347
642.00,68.391
642.50,68.798
643.00,69.374
643.50,69.451
644.00,69.276
644.50,69.179
645.00,68.623
645.50,68.850
646.00,69.350
646.50,69.591
647.00,69.779
647.50,69.607
648.00,69.112
648.50,68.683
649.00,68.736
649.50,69.355
650.00,69.935
650.50,70.084
651.00,70.239
651.50,70.130
652.00,69.900
652.50,70.141
653.00,70.220
653.50,70.368
654.00,70.651
654.50,70.542
655.00,70.501
655.50,70.662
656.00,70.681
656.50,70.470
657.00,70.552
657.50,70.612
658.00,70.546
658.50,70.667
659.00,70.663
659.50,70.776
660.00,70.808
660.50,70.500
661.00,70.530
661.50,70.538
662.00,70.495
662.50,70.526
663.00,70.411
663.50,70.544
664.00,70.531
664.50,70.436
665.00,70.462
665.50,70.405
666.00,70.416
666.50,70.319
667.00,70.303
667.50,70.257
668.00,70.388
668.50,70.333
669.00,70.258
669.50,70.327
670.00,70.191
670.50,70.020
671.00,69.874
671.50,69.693
672.00,69.802
672.50,69.509
673.00,69.379
673.50,69.278
674.00,69.321
674.50,69.198
675.00,69.058
675.50,68.591
676.00,68.206
676.50,67.550
677.00,66.668
677.50,65.205
678.00,62.947
678.50,60.707
679.00,59.341
679.50,58.719
680.00,60.699
680.50,62.629
681.00,62.755
681.50,60.899
682.00,57.944
682.50,53.875
683.00,48.491
683.50,43.176
684.00,38.659
684.50,34.159
685.00,35.773
685.50,45.255
686.00,52.666
686.50,55.414
687.00,54.926
687.50,52.728
688.00,49.854
688.50,48.300
689.00,48.029
689.50,48.235
690.00,48.249
690.50,48.287
691.00,46.548
691.50,46.618
692.00,51.386
692.50,56.485
693.00,58.793
693.50,58.103
694.00,54.994
694.50,52.628
695.00,55.069
695.50,59.531
696.00,62.741
696.50,64.465
697.00,65.185
697.50,66.050
698.00,66.454
698.50,66.807
699.00,66.778
699.50,66.311
700.00,65.807
700.50,65.705
701.00,66.353
701.50,66.998
702.00,67.554
702.50,67.993
703.00,67.514
703.50,66.310
704.00,65.030
704.50,65.216
705.00,66.524
705.50,67.404
706.00,67.741
706.50,67.599
707.00,67.574
707.50,68.072
708.00,68.529
708.50,68.818
709.00,69.234
709.50,69.357
710.00,69.546
710.50,69.724
711.00,69.961
711.50,69.651
712.00,69.700
712.50,69.663
713.00,69.687
713.50,69.739
714.00,69.734
714.50,70.110
715.00,70.233
715.50,70.384
716.00,70.386
716.50,70.298
717.00,70.663
717.50,70.463
718.00,70.288
718.50,70.592
719.00,70.355
719.50,70.249
720.00,70.541
720.50,70.154
721.00,70.200
721.50,70.111
722.00,69.755
722.50,69.968
723.00,69.747
723.50,69.617
724.00,69.709
724.50,69.155
725.00,69.004
725.50,68.684
726.00,68.533
726.50,68.195
727.00,67.329
727.50,66.785
728.00,66.076
728.50,65.970
729.00,65.883
729.50,65.439
730.00,65.442
730.50,65.529
731.00,64.783
731.50,63.471
732.00,63.090
732.50,62.293
733.00,61.971
733.50,61.073
734.00,59.961
734.50,59.569
735.00,57.922
735.50,56.522
736.00,55.865
736.50,55.274
737.00,55.070
737.50,53.891
738.00,51.767
738.50,49.856
739.00,47.607
739.50,44.858
740.00,41.846
740.50,37.083
741.00,29.449
741.50,17.419
742.00,5.432
742.50,0.353
743.00,0.191
743.50,2.236
744.00,8.007
744.50,14.532
745.00,17.580
745.50,16.309
746.00,11.060
746.50,5.416
747.00,3.614
747.50,4.287
748.00,4.557
748.50,2.956
749.00,1.158
749.50,0.494
750.00,0.330
750.50,0.189
751.00,0.343
751.50,0.391
752.00,0.184
752.50,0.100
753.00,0.326
753.50,1.297
754.00,2.674
754.50,3.287
755.00,2.537
755.50,1.220
756.00,0.360
756.50,0.266
757.00,0.708
757.50,1.907
758.00,3.488
758.50,4.586
759.00,4.893
759.50,4.666
760.00,4.605
760.50,5.569
761.00,7.577
761.50,9.826
762.00,11.965
762.50,14.848
763.00,18.566
763.50,23.105
764.00,26.611
764.50,29.780
765.00,32.271
765.50,34.797
766.00,35.762
766.50,35.930
767.00,34.889
767.50,34.779
768.00,36.563
768.50,39.226
769.00,42.606
769.50,46.376
770.00,49.332
770.50,51.651
771.00,53.613
771.50,54.084
772.00,54.006
772.50,52.897
773.00,50.329
773.50,45.439
774.00,38.811
774.50,34.156
775.00,32.536
775.50,34.232
776.00,38.204
776.50,43.354
777.00,49.238
777.50,53.797
778.00,57.137
778.50,59.514
779.00,60.992
779.50,61.890
780.00,62.709
780.50,63.321
781.00,63.205
781.50,63.412
782.00,63.238
782.50,62.713
783.00,62.519
783.50,62.284
784.00,62.526
784.50,62.320
785.00,62.288
785.50,61.754
786.00,61.176
786.50,60.082
787.00,58.195
787.50,55.331
788.00,52.265
788.50,51.774
789.00,52.512
789.50,54.323
790.00,54.854
790.50,55.021
791.00,54.497
791.50,54.557
792.00,54.124
792.50,53.230
793.00,52.123
793.50,50.705
794.00,49.821
794.50,48.426
795.00,47.282
795.50,45.412
796.00,42.181
796.50,38.253
797.00,33.931
797.50,29.483
798.00,26.353
798.50,23.275
799.00,19.889
799.50,15.635
800.00,11.790
800.50,10.776
801.00,11.627
801.50,12.432
802.00,13.163
802.50,13.472
803.00,12.427
803.50,10.206
804.00,7.095
804.50,4.425
805.00,2.203
805.50,0.642
806.00,0.110
806.50,0.054
807.00,0.168
807.50,0.171
808.00,0.045
808.50,0.038
809.00,0.029
809.50,0.143
810.00,0.770
810.50,1.683
811.00,2.383
811.50,2.900
812.00,3.071
812.50,2.730
813.00,2.257
813.50,2.097
814.00,2.230
814.50,2.602
815.00,3.534
815.50,4.697
816.00,5.908
816.50,7.538
817.00,9.522
817.50,10.659
818.00,10.631
818.50,9.198
819.00,7.733
819.50,8.204
820.00,10.175
820.50,12.871
821.00,15.125
821.50,17.678
822.00,20.646
822.50,25.822
823.00,32.276
823.50,38.688
824.00,42.917
824.50,45.747
825.00,48.339
825.50,50.049
826.00,50.834
826.50,51.503
827.00,52.181
827.50,52.354
828.00,52.233
828.50,52.555
829.00,53.141
829.50,53.382
830.00,54.505
830.50,55.530
831.00,57.018
831.50,57.456
832.00,57.364
832.50,57.405
833.00,56.086
833.50,53.296
834.00,48.977
834.50,42.725
835.00,36.118
835.50,32.809
836.00,34.448
836.50,39.442
837.00,45.983
837.50,51.532
838.00,57.021
838.50,61.391
839.00,63.607
839.50,65.728
840.00,67.367
840.50,67.905
841.00,68.938
841.50,68.262
842.00,69.269
842.50,68.898
843.00,68.793
843.50,68.872
844.00,68.880
844.50,68.557
845.00,68.916
845.50,69.246
846.00,69.039
846.50,69.490
847.00,69.872
847.50,69.604
848.00,69.582
848.50,69.979
849.00,70.199
849.50,69.644
850.00,70.123
850.50,69.750
851.00,68.596
851.50,68.268
852.00,68.244
852.50,68.049
853.00,68.384
853.50,68.323
854.00,67.698
854.50,66.904
855.00,66.814
855.50,67.064
856.00,66.481
856.50,66.162
857.00,65.401
857.50,64.766
858.00,64.027
858.50,64.300
859.00,64.441
859.50,65.404
860.00,65.379
860.50,66.702
861.00,67.043
861.50,67.504
862.00,66.745
862.50,66.035
863.00,66.264
863.50,64.979
864.00,64.412
864.50,63.526
865.00,63.305
865.50,61.513
866.00,61.165
866.50,60.385
867.00,60.066
867.50,57.935
868.00,56.860
868.50,55.443
869.00,57.242
869.50,56.754
870.00,57.002
870.50,57.534
871.00,56.421
871.50,55.123
872.00,53.252
872.50,51.061
873.00,48.971
873.50,46.460
874.00,44.628
874.50,42.236
875.00,39.824
875.50,36.521
876.00,32.681
876.50,28.123
877.00,20.479
877.50,11.698
878.00,4.796
878.50,0.850
879.00,1.231
879.50,2.752
880.00,5.044
880.50,10.246
881.00,14.596
881.50,17.317
882.00,20.660
882.50,23.392
883.00,27.235
883.50,31.097
884.00,35.417
884.50,37.544
885.00,40.310
885.50,39.718
886.00,39.858
886.50,36.817
887.00,31.717
887.50,27.332
888.00,23.664
888.50,23.895
889.00,27.680
889.50,32.051
890.00,35.868
890.50,42.925
891.00,45.694
891.50,46.200
892.00,47.883
892.50,50.489
893.00,54.020
893.50,55.595
894.00,60.040
894.50,61.363
895.00,60.159
895.50,62.033
896.00,62.804
896.50,64.881
897.00,65.327
897.50,67.164
898.00,68.465
898.50,66.398
899.00,66.131
899.50,65.233
900.00,65.294
900.50,65.822
901.00,65.868
901.50,66.120
902.00,66.290
902.50,66.767
903.00,67.050
903.50,67.238
904.00,67.605
904.50,67.872
905.00,67.998
905.50,68.430
906.00,68.563
906.50,68.649
907.00,68.767
907.50,68.677
908.00,68.897
908.50,69.147
909.00,69.004
909.50,68.649
910.00,68.277
910.50,67.585
911.00,66.587
911.50,64.903
912.00,62.173
912.50,58.149
913.00,52.852
913.50,49.947
914.00,50.114
914.50,52.190
915.00,55.457
915.50,58.801
916.00,61.695
916.50,64.324
917.00,66.588
917.50,68.110
918.00,69.450
918.50,70.226
919.00,70.753
919.50,71.282
920.00,71.612
920.50,71.914
921.00,72.046
921.50,72.227
922.00,72.333
922.50,72.415
923.00,72.364
923.50,72.525
924.00,72.472
924.50,72.625
925.00,72.557
925.50,72.532
926.00,72.687
926.50,72.597
927.00,72.729
927.50,72.721
928.00,72.778
928.50,72.753
929.00,72.816
929.50,72.868
930.00,72.889
930.50,72.982
931.00,73.028
931.50,72.980
932.00,73.085
932.50,73.027
933.00,73.125
933.50,73.166
934.00,73.005
934.50,73.094
935.00,73.115
935.50,73.087
936.00,73.073
936.50,73.140
937.00,73.006
937.50,73.101
938.00,73.153
938.50,73.140
939.00,73.171
939.50,73.119
940.00,73.099
940.50,73.096
941.00,73.100
941.50,73.179
942.00,73.180
942.50,73.228
943.00,73.217
943.50,73.157
944.00,73.171
944.50,73.231
945.00,73.124
945.50,73.197
946.00,73.247
946.50,73.277
947.00,73.328
947.50,73.298
948.00,73.326
948.50,73.326
949.00,73.183
949.50,73.297
950.00,73.196
950.50,73.159
951.00,73.189
951.50,73.227
952.00,73.262
952.50,73.387
953.00,73.286
953.50,73.120
954.00,73.077
954.50,73.168
955.00,73.085
955.50,73.233
956.00,73.305
956.50,73.203
957.00,73.177
957.50,73.209
958.00,73.174
958.50,73.152
959.00,73.171
959.50,73.263
960.00,73.247
960.50,73.264
961.00,73.259
961.50,73.191
962.00,73.216
962.50,73.246
963.00,73.216
963.50,73.304
964.00,73.262
964.50,73.282
965.00,73.315
965.50,73.307
966.00,73.354
966.50,73.278
967.00,73.371
967.50,73.318
968.00,73.340
968.50,73.342
969.00,73.356
969.50,73.271
970.00,73.326
970.50,73.308
971.00,73.389
971.50,73.340
972.00,73.325
972.50,73.292
973.00,73.399
973.50,73.392
974.00,73.354
974.50,73.360
975.00,73.374
975.50,73.336
976.00,73.389
976.50,73.426
977.00,73.375
977.50,73.418
978.00,73.371
978.50,73.381
979.00,73.448
979.50,73.379
980.00,73.490
980.50,73.407
981.00,73.427
981.50,73.386
982.00,73.443
982.50,73.400
983.00,73.426
983.50,73.460
984.00,73.438
984.50,73.376
985.00,73.437
985.50,73.409
986.00,73.517
986.50,73.431
987.00,73.394
987.50,73.402
988.00,73.482
988.50,73.463
989.00,73.469
989.50,73.462
990.00,73.442
990.50,73.410
991.00,73.409
991.50,73.408
992.00,73.460
992.50,73.470
993.00,73.458
993.50,73.442
994.00,73.460
994.50,73.442
995.00,73.447
995.50,73.446
996.00,73.448
996.50,73.459
997.00,73.484
997.50,73.494
998.00,73.458
998.50,73.488
999.00,73.478
999.50,73.456
1000.00,73.435
1000.50,73.434
1001.00,73.420
1001.50,73.462
1002.00,73.485
1002.50,73.401
1003.00,73.447
1003.50,73.479
1004.00,73.437
1004.50,73.430
1005.00,73.453
1005.50,73.473
1006.00,73.424
1006.50,73.457
1007.00,73.434
1007.50,73.428
1008.00,73.484
1008.50,73.495
1009.00,73.557
1009.50,73.482
1010.00,73.464
1010.50,73.424
1011.00,73.455
1011.50,73.477
1012.00,73.461
1012.50,73.465
1013.00,73.487
1013.50,73.516
1014.00,73.494
1014.50,73.442
1015.00,73.404
1015.50,73.464
1016.00,73.476
1016.50,73.485
1017.00,73.471
1017.50,73.492
1018.00,73.485
1018.50,73.471
1019.00,73.369
1019.50,73.453
1020.00,73.455
1020.50,73.530
1021.00,73.512
1021.50,73.516
1022.00,73.496
1022.50,73.559
1023.00,73.498
1023.50,73.477
1024.00,73.527
1024.50,73.468
1025.00,73.486
1025.50,73.449
1026.00,73.479
1026.50,73.486
1027.00,73.489
1027.50,73.485
1028.00,73.500
1028.50,73.507
1029.00,73.490
1029.50,73.505
1030.00,73.532
1030.50,73.508
1031.00,73.464
1031.50,73.510
1032.00,73.455
1032.50,73.457
1033.00,73.441
1033.50,73.485
1034.00,73.481
1034.50,73.443
1035.00,73.497
1035.50,73.458
1036.00,73.482
1036.50,73.492
1037.00,73.512
1037.50,73.495
1038.00,73.526
1038.50,73.469
1039.00,73.542
1039.50,73.554
1040.00,73.503
1040.50,73.500
1041.00,73.513
1041.50,73.514
1042.00,73.518
1042.50,73.550
1043.00,73.524
1043.50,73.493
1044.00,73.509
1044.50,73.509
1045.00,73.539
1045.50,73.500
1046.00,73.546
1046.50,73.567
1047.00,73.561
1047.50,73.559
1048.00,73.521
1048.50,73.554
1049.00,73.555
1049.50,73.594
1050.00,73.568
1050.50,73.575
1051.00,73.565
1051.50,73.558
1052.00,73.554
1052.50,73.601
1053.00,73.581
1053.50,73.528
1054.00,73.599
1054.50,73.546
1055.00,73.522
1055.50,73.536
1056.00,73.582
1056.50,73.555
1057.00,73.561
1057.50,73.590
1058.00,73.563
1058.50,73.590
1059.00,73.586
1059.50,73.576
1060.00,73.569
1060.50,73.515
1061.00,73.566
1061.50,73.550
1062.00,73.541
1062.50,73.514
1063.00,73.508
1063.50,73.505
1064.00,73.430
1064.50,73.331
1065.00,73.322
1065.50,73.406
1066.00,73.493
1066.50,73.527
1067.00,73.527
1067.50,73.516
1068.00,73.544
1068.50,73.550
1069.00,73.518
1069.50,73.552
1070.00,73.548
1070.50,73.528
1071.00,73.613
1071.50,73.608
1072.00,73.524
1072.50,73.510
1073.00,73.513
1073.50,73.556
1074.00,73.591
1074.50,73.596
1075.00,73.563
1075.50,73.572
1076.00,73.575
1076.50,73.570
1077.00,73.519
1077.50,73.488
1078.00,73.553
1078.50,73.556
1079.00,73.553
1079.50,73.518
1080.00,73.541
1080.50,73.583
1081.00,73.553
1081.50,73.558
1082.00,73.570
1082.50,73.556
1083.00,73.560
1083.50,73.549
1084.00,73.531
1084.50,73.547
1085.00,73.533
1085.50,73.513
1086.00,73.592
1086.50,73.560
1087.00,73.566
1087.50,73.599
1088.00,73.520
1088.50,73.531
1089.00,73.570
1089.50,73.586
1090.00,73.560
1090.50,73.538
1091.00,73.598
1091.50,73.574
1092.00,73.525
1092.50,73.536
1093.00,73.519
1093.50,73.470
1094.00,73.432
1094.50,73.531
1095.00,73.540
1095.50,73.533
1096.00,73.575
1096.50,73.551
1097.00,73.536
1097.50,73.550
1098.00,73.512
1098.50,73.520
1099.00,73.571
1099.50,73.482
1100.00,73.533
1100.50,73.546
1101.00,73.554
1101.50,73.510
1102.00,73.499
1102.50,73.507
1103.00,73.469
1103.50,73.480
1104.00,73.527
1104.50,73.471
1105.00,73.500
1105.50,73.490
1106.00,73.486
1106.50,73.495
1107.00,73.460
1107.50,73.481
1108.00,73.506
1108.50,73.464
1109.00,73.406
1109.50,73.470
1110.00,73.431
1110.50,73.435
1111.00,73.478
1111.50,73.480
1112.00,73.470
1112.50,73.445
1113.00,73.466
1113.50,73.473
1114.00,73.481
1114.50,73.450
1115.00,73.449
1115.50,73.473
1116.00,73.444
1116.50,73.466
1117.00,73.475
1117.50,73.459
1118.00,73.416
1118.50,73.470
1119.00,73.478
1119.50,73.464
1120.00,73.469
1120.50,73.457
1121.00,73.486
1121.50,73.425
1122.00,73.495
1122.50,73.485
1123.00,73.464
1123.50,73.438
1124.00,73.445
1124.50,73.413
1125.00,73.435
1125.50,73.413
1126.00,73.408
1126.50,73.398
1127.00,73.447
1127.50,73.439
1128.00,73.471
1128.50,73.452
1129.00,73.427
1129.50,73.445
1130.00,73.460
1130.50,73.410
1131.00,73.427
1131.50,73.414
1132.00,73.410
1132.50,73.411
1133.00,73.432
1133.50,73.445
1134.00,73.452
1134.50,73.472
1135.00,73.501
1135.50,73.439
1136.00,73.424
1136.50,73.484
1137.00,73.452
1137.50,73.457
1138.00,73.435
1138.50,73.489
1139.00,73.454
1139.50,73.469
1140.00,73.442
1140.50,73.473
1141.00,73.470
1141.50,73.469
1142.00,73.448
1142.50,73.499
1143.00,73.462
1143.50,73.451
1144.00,73.437
1144.50,73.447
1145.00,73.473
1145.50,73.478
1146.00,73.426
1146.50,73.452
1147.00,73.440
1147.50,73.474
1148.00,73.465
1148.50,73.437
1149.00,73.463
1149.50,73.482
1150.00,73.479
1150.50,73.448
1151.00,73.449
1151.50,73.452
1152.00,73.447
1152.50,73.445
1153.00,73.485
1153.50,73.452
1154.00,73.430
1154.50,73.432
1155.00,73.436
1155.50,73.435
1156.00,73.457
1156.50,73.465
1157.00,73.475
1157.50,73.439
1158.00,73.478
1158.50,73.451
1159.00,73.449
1159.50,73.465
1160.00,73.405
1160.50,73.465
1161.00,73.452
1161.50,73.457
1162.00,73.451
1162.50,73.425
1163.00,73.445
1163.50,73.438
1164.00,73.419
1164.50,73.438
1165.00,73.433
1165.50,73.413
1166.00,73.459
1166.50,73.447
1167.00,73.512
1167.50,73.457
1168.00,73.415
1168.50,73.439
1169.00,73.414
1169.50,73.416
1170.00,73.435
1170.50,73.420
1171.00,73.366
1171.50,73.429
1172.00,73.380
1172.50,73.414
1173.00,73.416
1173.50,73.428
1174.00,73.448
1174.50,73.432
1175.00,73.462
1175.50,73.398
1176.00,73.395
1176.50,73.404
1177.00,73.385
1177.50,73.401
1178.00,73.426
1178.50,73.415
1179.00,73.415
1179.50,73.393
1180.00,73.415
1180.50,73.392
1181.00,73.423
1181.50,73.459
1182.00,73.442
1182.50,73.412
1183.00,73.404
1183.50,73.380
1184.00,73.375
1184.50,73.388
1185.00,73.416
1185.50,73.426
1186.00,73.369
1186.50,73.369
1187.00,73.427
1187.50,73.401
1188.00,73.377
1188.50,73.368
1189.00,73.408
1189.50,73.386
1190.00,73.364
1190.50,73.372
1191.00,73.396
1191.50,73.426
1192.00,73.422
1192.50,73.394
1193.00,73.399
1193.50,73.380
1194.00,73.374
1194.50,73.397
1195.00,73.369
1195.50,73.408
1196.00,73.421
1196.50,73.451
1197.00,73.420
1197.50,73.411
1198.00,73.423
1198.50,73.411
1199.00,73.425
1199.50,73.410
1200.00,73.403
1200.50,73.408
1201.00,73.435
1201.50,73.390
1202.00,73.426
1202.50,73.466
1203.00,73.442
1203.50,73.463
1204.00,73.391
1204.50,73.440
1205.00,73.414
1205.50,73.429
1206.00,73.446
1206.50,73.472
1207.00,73.448
1207.50,73.478
1208.00,73.476
1208.50,73.498
1209.00,73.517
1209.50,73.464
1210.00,73.504
1210.50,73.498
1211.00,73.459
1211.50,73.432
1212.00,73.489
1212.50,73.466
1213.00,73.449
1213.50,73.496
1214.00,73.510
1214.50,73.482
1215.00,73.481
1215.50,73.474
1216.00,73.508
1216.50,73.487
1217.00,73.485
1217.50,73.495
1218.00,73.459
1218.50,73.432
1219.00,73.433
1219.50,73.479
1220.00,73.498
1220.50,73.435
1221.00,73.480
1221.50,73.456
1222.00,73.459
1222.50,73.463
1223.00,73.489
1223.50,73.456
1224.00,73.466
1224.50,73.462
1225.00,73.440
1225.50,73.449
1226.00,73.518
1226.50,73.472
1227.00,73.443
1227.50,73.494
1228.00,73.492
1228.50,73.445
1229.00,73.470
1229.50,73.488
1230.00,73.493
1230.50,73.514
1231.00,73.518
1231.50,73.457
1232.00,73.483
1232.50,73.533
1233.00,73.477
1233.50,73.487
1234.00,73.491
1234.50,73.455
1235.00,73.503
1235.50,73.511
1236.00,73.520
1236.50,73.510
1237.00,73.484
1237.50,73.542
1238.00,73.513
1238.50,73.479
1239.00,73.523
1239.50,73.529
1240.00,73.489
1240.50,73.503
1241.00,73.501
1241.50,73.475
1242.00,73.495
1242.50,73.484
1243.00,73.520
1243.50,73.504
1244.00,73.474
1244.50,73.466
1245.00,73.467
1245.50,73.503
1246.00,73.476
1246.50,73.485
1247.00,73.479
1247.50,73.475
1248.00,73.504
1248.50,73.472
1249.00,73.477
1249.50,73.483
1250.00,73.417
1250.50,73.442
1251.00,73.477
1251.50,73.451
1252.00,73.433
1252.50,73.433
1253.00,73.444
1253.50,73.437
1254.00,73.427
1254.50,73.407
1255.00,73.448
1255.50,73.451
1256.00,73.437
1256.50,73.468
1257.00,73.463
1257.50,73.461
1258.00,73.475
1258.50,73.497
1259.00,73.459
1259.50,73.461
1260.00,73.486
1260.50,73.495
1261.00,73.473
1261.50,73.475
1262.00,73.495
1262.50,73.468
1263.00,73.454
1263.50,73.476
1264.00,73.482
1264.50,73.493
1265.00,73.491
1265.50,73.446
1266.00,73.477
1266.50,73.479
1267.00,73.454
1267.50,73.460
1268.00,73.487
1268.50,73.443
1269.00,73.470
1269.50,73.450
1270.00,73.456
1270.50,73.491
1271.00,73.517
1271.50,73.508
1272.00,73.458
1272.50,73.487
1273.00,73.460
1273.50,73.488
1274.00,73.485
1274.50,73.465
1275.00,73.459
1275.50,73.464
1276.00,73.462
1276.50,73.467
1277.00,73.481
1277.50,73.456
1278.00,73.476
1278.50,73.480
1279.00,73.460
1279.50,73.441
1280.00,73.485
1280.50,73.463
1281.00,73.483
1281.50,73.495
1282.00,73.477
1282.50,73.516
1283.00,73.464
1283.50,73.471
1284.00,73.512
1284.50,73.464
1285.00,73.475
1285.50,73.468
1286.00,73.508
1286.50,73.468
1287.00,73.504
1287.50,73.466
1288.00,73.494
1288.50,73.503
1289.00,73.453
1289.50,73.488
1290.00,73.473
1290.50,73.460
1291.00,73.498
1291.50,73.474
1292.00,73.489
1292.50,73.491
1293.00,73.502
1293.50,73.500
1294.00,73.501
1294.50,73.532
1295.00,73.470
1295.50,73.528
1296.00,73.492
1296.50,73.461
1297.00,73.488
1297.50,73.504
1298.00,73.511
1298.50,73.488
1299.00,73.488
1299.50,73.489
1300.00,73.504
1300.50,73.539
1301.00,73.526
1301.50,73.478
1302.00,73.474
1302.50,73.490
1303.00,73.459
1303.50,73.464
1304.00,73.512
1304.50,73.459
1305.00,73.474
1305.50,73.480
1306.00,73.432
1306.50,73.444
1307.00,73.437
1307.50,73.435
1308.00,73.405
1308.50,73.471
1309.00,73.481
1309.50,73.471
1310.00,73.490
1310.50,73.508
1311.00,73.443
1311.50,73.439
1312.00,73.464
1312.50,73.467
1313.00,73.448
1313.50,73.510
1314.00,73.473
1314.50,73.493
1315.00,73.484
1315.50,73.503
1316.00,73.467
1316.50,73.446
1317.00,73.518
1317.50,73.514
1318.00,73.497
1318.50,73.503
1319.00,73.508
1319.50,73.509
1320.00,73.501
1320.50,73.467
1321.00,73.450
1321.50,73.483
1322.00,73.468
1322.50,73.465
1323.00,73.477
1323.50,73.466
1324.00,73.478
1324.50,73.498
1325.00,73.510
1325.50,73.493
1326.00,73.523
1326.50,73.505
1327.00,73.528
1327.50,73.520
1328.00,73.559
1328.50,73.536
1329.00,73.551
1329.50,73.556
1330.00,73.532
1330.50,73.588
1331.00,73.560
1331.50,73.580
1332.00,73.552
1332.50,73.574
1333.00,73.556
1333.50,73.617
1334.00,73.602
1334.50,73.587
1335.00,73.613
1335.50,73.586
1336.00,73.594
1336.50,73.644
1337.00,73.631
1337.50,73.638
1338.00,73.645
1338.50,73.626
1339.00,73.665
1339.50,73.629
1340.00,73.653
1340.50,73.642
1341.00,73.635
1341.50,73.686
1342.00,73.645
1342.50,73.632
1343.00,73.632
1343.50,73.662
1344.00,73.605
1344.50,73.635
1345.00,73.633
1345.50,73.599
1346.00,73.576
1346.50,73.621
1347.00,73.580
1347.50,73.580
1348.00,73.593
1348.50,73.600
1349.00,73.595
1349.50,73.522
1350.00,73.551
1350.50,73.545
1351.00,73.548
1351.50,73.498
1352.00,73.480
1352.50,73.470
1353.00,73.499
1353.50,73.562
1354.00,73.430
1354.50,73.582
1355.00,73.487
1355.50,73.600
1356.00,73.422
1356.50,73.400
1357.00,73.411
1357.50,73.523
1358.00,73.400
1358.50,73.467
1359.00,73.373
1359.50,73.455
1360.00,73.428
1360.50,73.379
1361.00,73.317
1361.50,73.431
1362.00,73.583
1362.50,73.530
1363.00,73.466
1363.50,73.392
1364.00,73.161
1364.50,73.419
1365.00,73.619
1365.50,73.412
1366.00,73.364
1366.50,73.391
1367.00,73.371
1367.50,73.441
1368.00,73.197
1368.50,73.476
1369.00,73.422
1369.50,73.314
1370.00,73.462
1370.50,73.220
1371.00,73.629
1371.50,73.352
1372.00,73.451
1372.50,73.371
1373.00,73.322
1373.50,73.335
1374.00,73.318
1374.50,73.368
1375.00,73.386
1375.50,73.291
1376.00,73.391
1376.50,73.279
1377.00,73.471
1377.50,73.423
1378.00,73.206
1378.50,73.348
1379.00,73.414
1379.50,73.311
1380.00,72.950
1380.50,73.383
1381.00,73.483
1381.50,73.353
1382.00,73.109
1382.50,73.180
1383.00,73.388
1383.50,73.376
1384.00,73.265
1384.50,73.286
1385.00,73.240
1385.50,73.358
1386.00,73.294
1386.50,73.357
1387.00,73.321
1387.50,73.063
1388.00,73.366
1388.50,73.426
1389.00,73.312
1389.50,73.262
1390.00,73.302
1390.50,73.246
1391.00,73.257
1391.50,73.214
1392.00,73.136
1392.50,73.288
1393.00,73.375
1393.50,73.273
1394.00,73.305
1394.50,73.236
1395.00,73.194
1395.50,73.359
1396.00,73.181
1396.50,73.157
1397.00,73.326
1397.50,73.281
1398.00,73.224
1398.50,73.245
1399.00,73.254
1399.50,73.114
1400.00,73.315
1400.50,73.017
1401.00,73.453
1401.50,73.286
1402.00,73.320
1402.50,73.200
1403.00,73.214
1403.50,73.243
1404.00,73.120
1404.50,72.983
1405.00,73.437
1405.50,73.351
1406.00,73.196
1406.50,73.096
1407.00,73.140
1407.50,73.525
1408.00,73.206
1408.50,73.105
1409.00,72.944
1409.50,73.351
1410.00,73.202
1410.50,73.129
1411.00,73.093
1411.50,73.055
1412.00,73.047
1412.50,73.143
1413.00,73.123
1413.50,73.096
1414.00,73.167
1414.50,73.218
1415.00,73.202
1415.50,73.191
1416.00,73.163
1416.50,73.146
1417.00,73.178
1417.50,73.149
1418.00,73.238
1418.50,73.210
1419.00,73.145
1419.50,73.241
1420.00,73.232
1420.50,73.216
1421.00,73.198
1421.50,73.214
1422.00,73.163
1422.50,73.193
1423.00,73.188
1423.50,73.158
1424.00,73.214
1424.50,73.218
1425.00,73.195
1425.50,73.217
1426.00,73.217
1426.50,73.199
1427.00,73.234
1427.50,73.187
1428.00,73.188
1428.50,73.245
1429.00,73.190
1429.50,73.199
1430.00,73.196
1430.50,73.212
1431.00,73.207
1431.50,73.196
1432.00,73.230
1432.50,73.238
1433.00,73.200
1433.50,73.198
1434.00,73.220
1434.50,73.242
1435.00,73.247
1435.50,73.209
1436.00,73.256
1436.50,73.244
1437.00,73.212
1437.50,73.199
1438.00,73.300
1438.50,73.265
1439.00,73.200
1439.50,73.228
1440.00,73.229
1440.50,73.235
1441.00,73.204
1441.50,73.257
1442.00,73.271
1442.50,73.183
1443.00,73.256
1443.50,73.228
1444.00,73.202
1444.50,73.225
1445.00,73.159
1445.50,73.253
1446.00,73.262
1446.50,73.222
1447.00,73.244
1447.50,73.231
1448.00,73.210
1448.50,73.168
1449.00,73.190
1449.50,73.157
1450.00,73.165
1450.50,73.182
1451.00,73.181
1451.50,73.203
1452.00,73.171
1452.50,73.193
1453.00,73.211
1453.50,73.206
1454.00,73.164
1454.50,73.188
1455.00,73.284
1455.50,73.261
1456.00,73.268
1456.50,73.260
1457.00,73.240
1457.50,73.195
1458.00,73.223
1458.50,73.216
1459.00,73.287
1459.50,73.245
1460.00,73.253
1460.50,73.241
1461.00,73.273
1461.50,73.285
1462.00,73.272
1462.50,73.273
1463.00,73.223
1463.50,73.250
1464.00,73.223
1464.50,73.241
1465.00,73.266
1465.50,73.223
1466.00,73.270
1466.50,73.241
1467.00,73.255
1467.50,73.250
1468.00,73.207
1468.50,73.232
1469.00,73.245
1469.50,73.263
1470.00,73.272
1470.50,73.270
1471.00,73.286
1471.50,73.236
1472.00,73.253
1472.50,73.215
1473.00,73.282
1473.50,73.238
1474.00,73.227
1474.50,73.230
1475.00,73.229
1475.50,73.210
1476.00,73.261
1476.50,73.261
1477.00,73.241
1477.50,73.216
1478.00,73.238
1478.50,73.249
1479.00,73.198
1479.50,73.208
1480.00,73.233
1480.50,73.209
1481.00,73.230
1481.50,73.191
1482.00,73.208
1482.50,73.213
1483.00,73.255
1483.50,73.145
1484.00,73.146
1484.50,73.205
1485.00,73.198
1485.50,73.166
1486.00,73.180
1486.50,73.230
1487.00,73.226
1487.50,73.213
1488.00,73.224
1488.50,73.219
1489.00,73.210
1489.50,73.185
1490.00,73.157
1490.50,73.179
1491.00,73.267
1491.50,73.177
1492.00,73.191
1492.50,73.191
1493.00,73.212
1493.50,73.197
1494.00,73.197
1494.50,73.156
1495.00,73.229
1495.50,73.162
1496.00,73.180
1496.50,73.227
1497.00,73.209
1497.50,73.190
1498.00,73.159
1498.50,73.187
1499.00,73.194
1499.50,73.163
1500.00,73.148
1500.50,73.211
1501.00,73.183
1501.50,73.141
1502.00,73.145
1502.50,73.141
1503.00,73.132
1503.50,73.128
1504.00,73.135
1504.50,73.156
1505.00,73.247
1505.50,73.117
1506.00,73.150
1506.50,73.123
1507.00,73.150
1507.50,73.146
1508.00,73.107
1508.50,73.126
1509.00,73.137
1509.50,73.123
1510.00,73.071
1510.50,73.096
1511.00,73.114
1511.50,73.131
1512.00,73.044
1512.50,73.049
1513.00,73.132
1513.50,73.079
1514.00,73.127
1514.50,73.085
1515.00,73.102
1515.50,73.065
1516.00,73.048
1516.50,73.007
1517.00,73.052
1517.50,73.078
1518.00,73.040
1518.50,73.023
1519.00,73.037
1519.50,73.026
1520.00,73.019
1520.50,73.012
1521.00,73.026
1521.50,73.025
1522.00,73.006
1522.50,72.959
1523.00,73.000
1523.50,72.984
1524.00,72.973
1524.50,72.945
1525.00,72.945
1525.50,72.907
1526.00,72.942
1526.50,72.890
1527.00,72.948
1527.50,72.934
1528.00,72.910
1528.50,72.832
1529.00,72.916
1529.50,72.918
1530.00,72.910
1530.50,72.835
1531.00,72.879
1531.50,72.851
1532.00,72.835
1532.50,72.819
1533.00,72.807
1533.50,72.846
1534.00,72.852
1534.50,72.834
1535.00,72.822
1535.50,72.814
1536.00,72.829
1536.50,72.877
1537.00,72.844
1537.50,72.825
1538.00,72.835
1538.50,72.812
1539.00,72.788
1539.50,72.786
1540.00,72.813
1540.50,72.805
1541.00,72.779
1541.50,72.772
1542.00,72.790
1542.50,72.823
1543.00,72.775
1543.50,72.729
1544.00,72.719
1544.50,72.729
1545.00,72.732
1545.50,72.718
1546.00,72.657
1546.50,72.679
1547.00,72.623
1547.50,72.642
1548.00,72.642
1548.50,72.654
1549.00,72.637
1549.50,72.619
1550.00,72.626
1550.50,72.627
1551.00,72.590
1551.50,72.587
1552.00,72.555
1552.50,72.556
1553.00,72.602
1553.50,72.540
1554.00,72.506
1554.50,72.487
1555.00,72.482
1555.50,72.516
1556.00,72.508
1556.50,72.432
1557.00,72.420
1557.50,72.399
1558.00,72.416
1558.50,72.320
1559.00,72.294
1559.50,72.337
1560.00,72.284
1560.50,72.247
1561.00,72.153
1561.50,72.182
1562.00,72.152
1562.50,72.122
1563.00,72.039
1563.50,72.034
1564.00,72.065
1564.50,72.011
1565.00,71.942
1565.50,71.888
1566.00,71.862
1566.50,71.868
1567.00,71.827
1567.50,71.726
1568.00,71.697
1568.50,71.637
1569.00,71.623
1569.50,71.619
1570.00,71.539
1570.50,71.469
1571.00,71.403
1571.50,71.383
1572.00,71.260
1572.50,71.164
1573.00,71.082
1573.50,70.992
1574.00,70.842
1574.50,70.642
1575.00,70.473
1575.50,70.339
1576.00,70.115
1576.50,69.815
1577.00,69.505
1577.50,69.190
1578.00,68.878
1578.50,68.450
1579.00,68.026
1579.50,67.543
1580.00,67.025
1580.50,66.444
1581.00,65.876
1581.50,65.321
1582.00,64.831
1582.50,64.445
1583.00,64.184
1583.50,64.034
1584.00,64.083
1584.50,64.293
1585.00,64.547
1585.50,64.829
1586.00,65.176
1586.50,65.513
1587.00,65.770
1587.50,65.990
1588.00,66.167
1588.50,66.249
1589.00,66.251
1589.50,66.236
1590.00,65.993
1590.50,65.633
1591.00,65.269
1591.50,64.820
1592.00,64.099
1592.50,63.309
1593.00,62.372
1593.50,61.241
1594.00,59.898
1594.50,58.449
1595.00,56.994
1595.50,55.327
1596.00,53.642
1596.50,52.210
1597.00,51.010
1597.50,50.250
1598.00,49.988
1598.50,50.224
1599.00,50.967
1599.50,52.145
1600.00,53.625
