"sample_b.txt - RawData"
"Wavelength nm.","T%"
200.00,0.062
200.50,-0.052
201.00,-0.028
201.50,0.048
202.00,-0.104
202.50,-0.081
203.00,0.015
203.50,-0.062
204.00,-0.031
204.50,0.081
205.00,0.006
205.50,0.016
206.00,0.042
206.50,-0.100
207.00,-0.040
207.50,-0.013
208.00,-0.062
208.50,0.103
209.00,0.007
209.50,0.042
210.00,-0.017
210.50,0.008
211.00,0.019
211.50,0.010
212.00,0.043
212.50,0.053
213.00,0.033
213.50,-0.010
214.00,0.024
214.50,0.074
215.00,-0.004
215.50,0.029
216.00,0.031
216.50,-0.023
217.00,0.014
217.50,0.030
218.00,0.031
218.50,-0.014
219.00,0.050
219.50,0.005
220.00,0.018
220.50,0.020
221.00,0.028
221.50,-0.000
222.00,0.016
222.50,0.007
223.00,0.023
223.50,0.019
224.00,0.006
224.50,0.009
225.00,0.030
225.50,-0.002
226.00,-0.001
226.50,0.020
227.00,0.016
227.50,-0.002
228.00,0.019
228.50,0.019
229.00,0.001
229.50,0.024
230.00,0.009
230.50,-0.003
231.00,0.020
231.50,0.004
232.00,0.015
232.50,0.030
233.00,0.024
233.50,0.012
234.00,0.016
234.50,0.027
235.00,0.020
235.50,0.039
236.00,0.021
236.50,0.019
237.00,0.016
237.50,0.015
238.00,0.012
238.50,0.013
239.00,0.029
239.50,0.002
240.00,0.013
240.50,0.027
241.00,0.019
241.50,0.000
242.00,0.028
242.50,0.018
243.00,0.015
243.50,0.020
244.00,0.013
244.50,0.007
245.00,0.023
245.50,0.030
246.00,0.012
246.50,0.026
247.00,0.017
247.50,0.010
248.00,0.023
248.50,0.021
249.00,0.007
249.50,0.018
250.00,0.023
250.50,0.010
251.00,0.031
251.50,0.016
252.00,0.014
252.50,0.018
253.00,0.024
253.50,0.012
254.00,0.014
254.50,0.018
255.00,0.005
255.50,0.013
256.00,0.025
256.50,0.021
257.00,0.016
257.50,0.023
258.00,0.022
258.50,0.019
259.00,0.024
259.50,0.012
260.00,0.014
260.50,0.015
261.00,0.022
261.50,0.020
262.00,0.021
262.50,0.008
263.00,0.019
263.50,0.021
264.00,0.022
264.50,0.014
265.00,0.013
265.50,0.013
266.00,0.017
266.50,0.020
267.00,0.020
267.50,0.016
268.00,0.022
268.50,0.022
269.00,0.019
269.50,0.019
270.00,0.022
270.50,0.024
271.00,0.019
271.50,0.014
272.00,0.019
272.50,0.022
273.00,0.003
273.50,0.019
274.00,0.005
274.50,0.020
275.00,0.024
275.50,0.019
276.00,0.022
276.50,0.025
277.00,0.015
277.50,0.019
278.00,0.015
278.50,0.007
279.00,0.012
279.50,0.015
280.00,0.011
280.50,0.009
281.00,0.020
281.50,0.015
282.00,0.020
282.50,0.013
283.00,0.023
283.50,0.011
284.00,0.026
284.50,0.022
285.00,0.017
285.50,0.021
286.00,0.014
286.50,0.009
287.00,0.012
287.50,0.022
288.00,0.018
288.50,0.014
289.00,0.019
289.50,0.017
290.00,0.007
290.50,0.018
291.00,0.024
291.50,0.020
292.00,0.026
292.50,0.013
293.00,0.015
293.50,0.017
294.00,0.025
294.50,0.007
295.00,0.028
295.50,0.020
296.00,0.015
296.50,0.023
297.00,0.029
297.50,0.008
298.00,0.013
298.50,0.021
299.00,0.016
299.50,0.011
300.00,0.011
300.50,0.034
301.00,0.036
301.50,0.048
302.00,0.048
302.50,0.039
303.00,0.046
303.50,0.050
304.00,0.036
304.50,0.055
305.00,0.047
305.50,0.038
306.00,0.039
306.50,0.041
307.00,0.026
307.50,0.042
308.00,0.047
308.50,0.056
309.00,0.046
309.50,0.055
310.00,0.055
310.50,0.050
311.00,0.045
311.50,0.045
312.00,0.053
312.50,0.044
313.00,0.049
313.50,0.057
314.00,0.051
314.50,0.053
315.00,0.039
315.50,0.060
316.00,0.052
316.50,0.048
317.00,0.043
317.50,0.045
318.00,0.041
318.50,0.047
319.00,0.042
319.50,0.042
320.00,0.048
320.50,0.033
321.00,0.037
321.50,0.048
322.00,0.048
322.50,0.040
323.00,0.051
323.50,0.063
324.00,0.039
324.50,0.061
325.00,0.051
325.50,0.045
326.00,0.065
326.50,0.049
327.00,0.051
327.50,0.055
328.00,0.094
328.50,0.081
329.00,0.080
329.50,0.100
330.00,0.091
330.50,0.118
331.00,0.160
331.50,0.149
332.00,0.210
332.50,0.216
333.00,0.264
333.50,0.321
334.00,0.402
334.50,0.465
335.00,0.538
335.50,0.629
336.00,0.714
336.50,0.828
337.00,1.009
337.50,1.168
338.00,1.375
338.50,1.553
339.00,1.793
339.50,2.065
340.00,2.385
340.50,2.644
341.00,2.913
341.50,3.576
342.00,3.701
342.50,4.391
343.00,4.854
343.50,5.628
344.00,6.213
344.50,6.678
345.00,7.449
345.50,8.322
346.00,8.684
346.50,9.737
347.00,10.421
347.50,11.450
348.00,12.066
348.50,13.132
349.00,14.118
349.50,14.667
350.00,15.363
350.50,16.249
351.00,16.812
351.50,17.532
352.00,18.228
352.50,19.159
353.00,20.357
353.50,21.227
354.00,22.502
354.50,23.774
355.00,25.847
355.50,27.438
356.00,29.028
356.50,30.396
357.00,32.001
357.50,33.396
358.00,34.242
358.50,35.078
359.00,35.738
359.50,36.640
360.00,36.308
360.50,37.018
361.00,36.947
361.50,37.707
362.00,38.777
362.50,39.992
363.00,41.824
363.50,43.339
364.00,45.316
364.50,47.553
365.00,50.862
365.50,53.264
366.00,55.562
366.50,57.867
367.00,58.303
367.50,58.721
368.00,58.217
368.50,56.671
369.00,54.904
369.50,51.947
370.00,49.268
370.50,46.765
371.00,44.458
371.50,42.426
372.00,40.542
372.50,38.942
373.00,37.675
373.50,36.858
374.00,36.389
374.50,36.383
375.00,36.297
375.50,36.728
376.00,37.644
376.50,38.489
377.00,40.187
377.50,41.911
378.00,43.996
378.50,46.064
379.00,48.413
379.50,51.835
380.00,55.077
380.50,58.138
381.00,61.351
381.50,64.120
382.00,67.097
382.50,69.752
383.00,72.517
383.50,74.012
384.00,75.894
384.50,76.948
385.00,78.000
385.50,78.298
386.00,78.625
386.50,78.863
387.00,79.222
387.50,79.070
388.00,79.378
388.50,79.755
389.00,80.449
389.50,80.419
390.00,81.188
390.50,81.884
391.00,81.959
391.50,82.594
392.00,82.854
392.50,83.595
393.00,83.415
393.50,83.425
394.00,82.787
394.50,82.648
395.00,81.489
395.50,80.051
396.00,78.792
396.50,77.057
397.00,75.419
397.50,73.916
398.00,72.173
398.50,70.697
399.00,69.145
399.50,67.531
400.00,66.421
400.50,65.576
401.00,64.384
401.50,63.728
402.00,63.255
402.50,62.731
403.00,62.759
403.50,63.022
404.00,62.937
404.50,63.235
405.00,63.825
405.50,64.114
406.00,65.111
406.50,65.774
407.00,66.846
407.50,67.941
408.00,68.702
408.50,69.884
409.00,71.188
409.50,71.897
410.00,72.852
410.50,73.638
411.00,74.327
411.50,74.674
412.00,75.130
412.50,75.255
413.00,75.274
413.50,75.059
414.00,74.773
414.50,74.279
415.00,74.027
415.50,73.592
416.00,73.170
416.50,72.522
417.00,72.186
417.50,71.875
418.00,71.561
418.50,71.494
419.00,71.660
419.50,71.449
420.00,71.672
420.50,72.255
421.00,72.406
421.50,73.287
422.00,73.950
422.50,74.992
423.00,75.753
423.50,76.675
424.00,78.012
424.50,78.948
425.00,80.161
425.50,81.552
426.00,82.686
426.50,83.935
427.00,85.157
427.50,85.861
428.00,87.086
428.50,87.483
429.00,87.766
429.50,88.141
430.00,87.981
430.50,87.512
431.00,87.420
431.50,86.655
432.00,85.705
432.50,84.743
433.00,83.656
433.50,82.465
434.00,80.907
434.50,79.930
435.00,78.706
435.50,77.426
436.00,75.907
436.50,74.868
437.00,73.824
437.50,73.019
438.00,72.349
438.50,71.661
439.00,70.938
439.50,70.488
440.00,70.111
440.50,69.816
441.00,69.716
441.50,69.701
442.00,69.985
442.50,70.004
443.00,70.410
443.50,71.150
444.00,71.369
444.50,71.997
445.00,72.835
445.50,73.546
446.00,74.287
446.50,74.988
447.00,75.876
447.50,76.690
448.00,77.292
448.50,77.878
449.00,78.711
449.50,79.476
450.00,79.981
450.50,80.362
451.00,81.007
451.50,81.184
452.00,81.221
452.50,81.478
453.00,81.262
453.50,81.052
454.00,81.090
454.50,80.913
455.00,80.571
455.50,80.071
456.00,79.644
456.50,79.314
457.00,78.876
457.50,78.296
458.00,78.240
458.50,77.890
459.00,77.386
459.50,77.445
460.00,77.255
460.50,77.134
461.00,77.438
461.50,77.356
462.00,77.295
462.50,77.752
463.00,78.037
463.50,78.484
464.00,79.045
464.50,79.709
465.00,80.338
465.50,81.045
466.00,81.853
466.50,82.709
467.00,83.533
467.50,84.462
468.00,85.454
468.50,86.009
469.00,86.707
469.50,87.426
470.00,87.925
470.50,88.401
471.00,88.783
471.50,89.054
472.00,88.928
472.50,88.561
473.00,88.292
473.50,87.629
474.00,86.761
474.50,85.785
475.00,84.724
475.50,83.435
476.00,81.894
476.50,80.266
477.00,78.635
477.50,76.861
478.00,74.956
478.50,73.239
479.00,71.590
479.50,69.837
480.00,68.134
480.50,66.356
481.00,64.703
481.50,63.214
482.00,61.713
482.50,60.394
483.00,59.045
483.50,57.857
484.00,56.741
484.50,55.713
485.00,54.584
485.50,53.949
486.00,52.964
486.50,52.407
487.00,51.897
487.50,51.397
488.00,50.934
488.50,50.601
489.00,50.407
489.50,50.269
490.00,50.301
490.50,50.338
491.00,50.511
491.50,50.740
492.00,50.958
492.50,51.418
493.00,51.831
493.50,52.281
494.00,52.928
494.50,53.466
495.00,54.229
495.50,55.037
496.00,55.939
496.50,56.771
497.00,57.947
497.50,58.739
498.00,59.846
498.50,60.956
499.00,62.205
499.50,63.386
500.00,64.634
500.50,65.652
501.00,66.887
501.50,68.244
502.00,69.580
502.50,70.771
503.00,71.879
503.50,73.162
504.00,74.307
504.50,75.151
505.00,76.187
505.50,77.029
506.00,77.874
506.50,78.920
507.00,79.359
507.50,79.953
508.00,80.224
508.50,80.715
509.00,81.120
509.50,81.365
510.00,81.614
510.50,81.687
511.00,81.627
511.50,81.651
512.00,81.836
512.50,81.734
513.00,81.701
513.50,81.743
514.00,81.642
514.50,81.749
515.00,81.938
515.50,81.816
516.00,82.078
516.50,82.055
517.00,82.065
517.50,82.427
518.00,82.512
518.50,82.788
519.00,83.299
519.50,83.580
520.00,83.925
520.50,84.345
521.00,84.771
521.50,85.117
522.00,85.849
522.50,86.238
523.00,87.094
523.50,87.264
524.00,87.942
524.50,88.416
525.00,88.736
525.50,89.269
526.00,89.433
526.50,89.636
527.00,89.651
527.50,89.700
528.00,89.645
528.50,89.181
529.00,88.751
529.50,88.332
530.00,87.226
530.50,86.620
531.00,85.538
531.50,84.444
532.00,83.000
532.50,81.535
533.00,79.745
533.50,78.029
534.00,76.421
534.50,74.598
535.00,72.975
535.50,70.829
536.00,69.012
536.50,67.038
537.00,65.168
537.50,63.371
538.00,61.625
538.50,59.757
539.00,58.041
539.50,56.389
540.00,54.694
540.50,53.122
541.00,51.638
541.50,50.375
542.00,48.980
542.50,47.651
543.00,46.484
543.50,45.494
544.00,44.371
544.50,43.420
545.00,42.618
545.50,41.748
546.00,41.038
546.50,40.349
547.00,39.667
547.50,39.060
548.00,38.705
548.50,38.206
549.00,37.825
549.50,37.461
550.00,37.141
550.50,36.857
551.00,36.709
551.50,36.493
552.00,36.427
552.50,36.335
553.00,36.393
553.50,36.496
554.00,36.507
554.50,36.681
555.00,36.793
555.50,37.073
556.00,37.277
556.50,37.523
557.00,37.899
557.50,38.384
558.00,38.688
558.50,39.197
559.00,39.719
559.50,40.254
560.00,40.797
560.50,41.516
561.00,42.225
561.50,42.817
562.00,43.518
562.50,44.184
563.00,44.915
563.50,45.780
564.00,46.575
564.50,47.360
565.00,48.294
565.50,49.081
566.00,49.759
566.50,50.696
567.00,51.352
567.50,52.345
568.00,52.948
568.50,53.686
569.00,54.415
569.50,55.106
570.00,55.626
570.50,56.059
571.00,56.556
571.50,57.231
572.00,57.465
572.50,57.793
573.00,57.937
573.50,58.216
574.00,58.346
574.50,58.354
575.00,58.427
575.50,58.372
576.00,58.317
576.50,58.162
577.00,58.033
577.50,57.783
578.00,57.580
578.50,57.207
579.00,57.014
579.50,56.676
580.00,56.423
580.50,56.097
581.00,55.771
581.50,55.524
582.00,55.089
582.50,55.036
583.00,54.736
583.50,54.636
584.00,54.420
584.50,54.266
585.00,54.106
585.50,54.082
586.00,54.017
586.50,53.983
587.00,54.085
587.50,54.171
588.00,54.284
588.50,54.397
589.00,54.479
589.50,54.639
590.00,54.683
590.50,54.802
591.00,54.881
591.50,54.957
592.00,55.011
592.50,54.959
593.00,54.812
593.50,54.615
594.00,54.400
594.50,53.886
595.00,53.315
595.50,52.582
596.00,51.745
596.50,50.767
597.00,49.474
597.50,47.962
598.00,46.365
598.50,44.718
599.00,43.006
599.50,41.244
600.00,39.356
600.50,37.269
601.00,35.157
601.50,33.166
602.00,31.171
602.50,29.247
603.00,27.284
603.50,25.459
604.00,23.649
604.50,21.988
605.00,20.375
605.50,19.034
606.00,17.672
606.50,16.399
607.00,15.184
607.50,14.116
608.00,13.127
608.50,12.202
609.00,11.377
609.50,10.601
610.00,9.865
610.50,9.249
611.00,8.603
611.50,8.011
612.00,7.519
612.50,7.092
613.00,6.639
613.50,6.248
614.00,5.908
614.50,5.546
615.00,5.256
615.50,4.970
616.00,4.696
616.50,4.446
617.00,4.243
617.50,4.025
618.00,3.817
618.50,3.627
619.00,3.474
619.50,3.323
620.00,3.160
620.50,3.055
621.00,2.903
621.50,2.789
622.00,2.672
622.50,2.572
623.00,2.481
623.50,2.377
624.00,2.312
624.50,2.219
625.00,2.131
625.50,2.065
626.00,2.005
626.50,1.940
627.00,1.865
627.50,1.818
628.00,1.764
628.50,1.713
629.00,1.671
629.50,1.616
630.00,1.582
630.50,1.546
631.00,1.509
631.50,1.462
632.00,1.443
632.50,1.397
633.00,1.370
633.50,1.348
634.00,1.318
634.50,1.292
635.00,1.268
635.50,1.251
636.00,1.228
636.50,1.209
637.00,1.189
637.50,1.153
638.00,1.147
638.50,1.128
639.00,1.094
639.50,1.100
640.00,1.072
640.50,1.077
641.00,1.059
641.50,1.039
642.00,1.027
642.50,1.017
643.00,1.010
643.50,0.996
644.00,0.992
644.50,0.982
645.00,0.978
645.50,0.975
646.00,0.964
646.50,0.961
647.00,0.943
647.50,0.944
648.00,0.928
648.50,0.936
649.00,0.927
649.50,0.913
650.00,0.919
650.50,0.911
651.00,0.915
651.50,0.921
652.00,0.912
652.50,0.907
653.00,0.909
653.50,0.912
654.00,0.919
654.50,0.899
655.00,0.901
655.50,0.911
656.00,0.921
656.50,0.923
657.00,0.912
657.50,0.914
658.00,0.928
658.50,0.910
659.00,0.921
659.50,0.933
660.00,0.926
660.50,0.931
661.00,0.946
661.50,0.949
662.00,0.952
662.50,0.965
663.00,0.969
663.50,0.978
664.00,0.986
664.50,0.988
665.00,1.007
665.50,1.008
666.00,1.013
666.50,1.039
667.00,1.044
667.50,1.061
668.00,1.069
668.50,1.099
669.00,1.117
669.50,1.126
670.00,1.146
670.50,1.164
671.00,1.194
671.50,1.207
672.00,1.249
672.50,1.258
673.00,1.289
673.50,1.313
674.00,1.340
674.50,1.375
675.00,1.406
675.50,1.434
676.00,1.487
676.50,1.533
677.00,1.583
677.50,1.620
678.00,1.662
678.50,1.717
679.00,1.803
679.50,1.836
680.00,1.919
680.50,1.998
681.00,2.076
681.50,2.152
682.00,2.260
682.50,2.365
683.00,2.492
683.50,2.615
684.00,2.752
684.50,2.907
685.00,3.102
685.50,3.267
686.00,3.489
686.50,3.755
687.00,4.030
687.50,4.373
688.00,4.762
688.50,5.177
689.00,5.694
689.50,6.228
690.00,6.911
690.50,7.683
691.00,8.599
691.50,9.612
692.00,10.767
692.50,12.208
693.00,13.758
693.50,15.704
694.00,17.664
694.50,20.091
695.00,22.884
695.50,26.214
696.00,30.062
696.50,34.675
697.00,40.313
697.50,46.945
698.00,53.806
698.50,61.156
699.00,68.104
699.50,73.025
700.00,74.687
700.50,71.579
701.00,63.971
701.50,55.023
702.00,45.885
702.50,37.413
703.00,30.643
703.50,25.189
704.00,20.755
704.50,17.651
705.00,14.843
705.50,12.879
706.00,11.246
706.50,9.831
707.00,8.693
707.50,7.741
708.00,6.890
708.50,6.257
709.00,5.717
709.50,5.210
710.00,4.812
710.50,4.442
711.00,4.089
711.50,3.750
712.00,3.537
712.50,3.292
713.00,3.112
713.50,2.903
714.00,2.738
714.50,2.607
715.00,2.468
715.50,2.346
716.00,2.217
716.50,2.110
717.00,2.006
717.50,1.929
718.00,1.844
718.50,1.780
719.00,1.688
719.50,1.635
720.00,1.590
720.50,1.522
721.00,1.468
721.50,1.451
722.00,1.407
722.50,1.372
723.00,1.301
723.50,1.267
724.00,1.251
724.50,1.221
725.00,1.181
725.50,1.149
726.00,1.127
726.50,1.094
727.00,1.077
727.50,1.056
728.00,1.016
728.50,1.008
729.00,0.999
729.50,0.958
730.00,0.950
730.50,0.939
731.00,0.922
731.50,0.896
732.00,0.893
732.50,0.877
733.00,0.862
733.50,0.849
734.00,0.827
734.50,0.826
735.00,0.818
735.50,0.810
736.00,0.790
736.50,0.791
737.00,0.763
737.50,0.779
738.00,0.751
738.50,0.764
739.00,0.745
739.50,0.737
740.00,0.746
740.50,0.729
741.00,0.707
741.50,0.721
742.00,0.693
742.50,0.709
743.00,0.699
743.50,0.688
744.00,0.683
744.50,0.682
745.00,0.679
745.50,0.670
746.00,0.682
746.50,0.669
747.00,0.653
747.50,0.672
748.00,0.638
748.50,0.647
749.00,0.634
749.50,0.635
750.00,0.635
750.50,0.634
751.00,0.641
751.50,0.630
752.00,0.631
752.50,0.631
753.00,0.630
753.50,0.618
754.00,0.625
754.50,0.628
755.00,0.610
755.50,0.624
756.00,0.620
756.50,0.621
757.00,0.619
757.50,0.622
758.00,0.612
758.50,0.610
759.00,0.620
759.50,0.614
760.00,0.611
760.50,0.614
761.00,0.610
761.50,0.611
762.00,0.595
762.50,0.613
763.00,0.611
763.50,0.615
764.00,0.611
764.50,0.612
765.00,0.622
765.50,0.612
766.00,0.603
766.50,0.622
767.00,0.610
767.50,0.626
768.00,0.617
768.50,0.626
769.00,0.619
769.50,0.624
770.00,0.610
770.50,0.610
771.00,0.630
771.50,0.627
772.00,0.640
772.50,0.620
773.00,0.633
773.50,0.632
774.00,0.629
774.50,0.645
775.00,0.641
775.50,0.664
776.00,0.655
776.50,0.635
777.00,0.641
777.50,0.657
778.00,0.645
778.50,0.654
779.00,0.663
779.50,0.670
780.00,0.670
780.50,0.676
781.00,0.676
781.50,0.680
782.00,0.695
782.50,0.685
783.00,0.684
783.50,0.706
784.00,0.706
784.50,0.723
785.00,0.743
785.50,0.722
786.00,0.722
786.50,0.761
787.00,0.738
787.50,0.749
788.00,0.750
788.50,0.766
789.00,0.775
789.50,0.753
790.00,0.784
790.50,0.803
791.00,0.779
791.50,0.799
792.00,0.830
792.50,0.825
793.00,0.841
793.50,0.850
794.00,0.850
794.50,0.843
795.00,0.858
795.50,0.876
796.00,0.868
796.50,0.877
797.00,0.874
797.50,0.884
798.00,0.918
798.50,0.940
799.00,0.953
799.50,0.963
800.00,0.968
800.50,0.962
801.00,0.965
801.50,1.005
802.00,1.021
802.50,1.066
803.00,1.031
803.50,1.052
804.00,1.095
804.50,1.136
805.00,1.138
805.50,1.135
806.00,1.126
806.50,1.168
807.00,1.199
807.50,1.224
808.00,1.252
808.50,1.248
809.00,1.262
809.50,1.283
810.00,1.282
810.50,1.295
811.00,1.366
811.50,1.372
812.00,1.409
812.50,1.419
813.00,1.461
813.50,1.479
814.00,1.485
814.50,1.562
815.00,1.540
815.50,1.628
816.00,1.649
816.50,1.647
817.00,1.702
817.50,1.723
818.00,1.753
818.50,1.813
819.00,1.865
819.50,1.902
820.00,1.889
820.50,2.002
821.00,1.997
821.50,2.068
822.00,2.153
822.50,2.158
823.00,2.258
823.50,2.266
824.00,2.355
824.50,2.426
825.00,2.403
825.50,2.538
826.00,2.579
826.50,2.589
827.00,2.692
827.50,2.775
828.00,2.905
828.50,3.005
829.00,3.021
829.50,3.067
830.00,3.198
830.50,3.268
831.00,3.343
831.50,3.437
832.00,3.555
832.50,3.664
833.00,3.817
833.50,3.891
834.00,4.029
834.50,4.172
835.00,4.242
835.50,4.475
836.00,4.621
836.50,4.701
837.00,4.780
837.50,5.006
838.00,5.181
838.50,5.399
839.00,5.584
839.50,5.756
840.00,5.904
840.50,6.173
841.00,6.283
841.50,6.626
842.00,6.803
842.50,7.047
843.00,7.275
843.50,7.542
844.00,7.912
844.50,8.121
845.00,8.518
845.50,8.700
846.00,9.236
846.50,9.482
847.00,9.764
847.50,10.285
848.00,10.521
848.50,11.003
849.00,11.395
849.50,11.771
850.00,12.391
850.50,12.917
851.00,13.429
851.50,14.007
852.00,14.520
852.50,14.946
853.00,15.743
853.50,16.318
854.00,16.820
854.50,17.750
855.00,18.229
855.50,19.076
856.00,19.865
856.50,20.741
857.00,21.700
857.50,22.407
858.00,23.401
858.50,24.322
859.00,25.108
859.50,26.207
860.00,27.178
860.50,28.841
861.00,29.598
861.50,30.911
862.00,31.795
862.50,33.294
863.00,34.855
863.50,35.848
864.00,37.327
864.50,38.747
865.00,40.120
865.50,41.030
866.00,42.700
866.50,44.145
867.00,45.667
867.50,46.941
868.00,48.815
868.50,50.641
869.00,52.261
869.50,53.039
870.00,55.343
870.50,56.718
871.00,57.902
871.50,59.430
872.00,60.636
872.50,62.480
873.00,64.636
873.50,64.936
874.00,66.352
874.50,66.989
875.00,69.748
875.50,70.252
876.00,71.719
876.50,72.441
877.00,73.138
877.50,74.964
878.00,75.002
878.50,76.247
879.00,76.497
879.50,77.682
880.00,78.534
880.50,79.798
881.00,79.004
881.50,79.857
882.00,80.252
882.50,81.736
883.00,80.485
883.50,80.407
884.00,82.269
884.50,80.099
885.00,82.838
885.50,82.877
886.00,83.779
886.50,82.662
887.00,82.681
887.50,82.791
888.00,82.973
888.50,82.264
889.00,83.501
889.50,81.464
890.00,80.261
890.50,83.496
891.00,82.315
891.50,81.131
892.00,80.262
892.50,84.925
893.00,81.738
893.50,83.569
894.00,82.603
894.50,82.927
895.00,81.336
895.50,83.036
896.00,81.618
896.50,80.449
897.00,82.521
897.50,78.792
898.00,78.527
898.50,76.963
899.00,80.257
899.50,84.077
900.00,78.909
900.50,82.565
901.00,82.120
901.50,82.368
902.00,82.500
902.50,82.571
903.00,82.526
903.50,82.611
904.00,82.833
904.50,82.971
905.00,83.048
905.50,83.296
906.00,83.150
906.50,83.504
907.00,83.563
907.50,83.807
908.00,84.049
908.50,84.295
909.00,84.364
909.50,84.519
910.00,84.802
910.50,85.091
911.00,85.316
911.50,85.590
912.00,85.753
912.50,86.143
913.00,86.344
913.50,86.544
914.00,86.731
914.50,87.180
915.00,87.389
915.50,87.449
916.00,87.841
916.50,87.882
917.00,88.201
917.50,88.594
918.00,88.785
918.50,88.947
919.00,89.280
919.50,89.450
920.00,89.821
920.50,89.914
921.00,90.076
921.50,90.319
922.00,90.495
922.50,90.648
923.00,90.894
923.50,90.931
924.00,91.178
924.50,91.235
925.00,91.361
925.50,91.550
926.00,91.633
926.50,91.721
927.00,91.665
927.50,91.670
928.00,91.775
928.50,91.747
929.00,91.615
929.50,91.701
930.00,91.663
930.50,91.618
931.00,91.551
931.50,91.322
932.00,91.344
932.50,91.124
933.00,90.853
933.50,90.736
934.00,90.616
934.50,90.456
935.00,90.105
935.50,89.922
936.00,89.615
936.50,89.339
937.00,88.971
937.50,88.658
938.00,88.322
938.50,87.956
939.00,87.542
939.50,87.176
940.00,86.801
940.50,86.286
941.00,85.916
941.50,85.519
942.00,85.047
942.50,84.655
943.00,84.155
943.50,83.696
944.00,83.210
944.50,82.726
945.00,82.144
945.50,81.641
946.00,81.186
946.50,80.578
947.00,80.029
947.50,79.531
948.00,79.008
948.50,78.513
949.00,77.904
949.50,77.353
950.00,76.825
950.50,76.281
951.00,75.686
951.50,75.140
952.00,74.603
952.50,74.053
953.00,73.500
953.50,73.006
954.00,72.523
954.50,71.893
955.00,71.431
955.50,70.935
956.00,70.367
956.50,69.850
957.00,69.346
957.50,68.860
958.00,68.348
958.50,67.811
959.00,67.316
959.50,66.777
960.00,66.236
960.50,65.745
961.00,65.258
961.50,64.772
962.00,64.395
962.50,63.814
963.00,63.376
963.50,62.847
964.00,62.511
964.50,61.991
965.00,61.569
965.50,61.176
966.00,60.824
966.50,60.363
967.00,59.934
967.50,59.549
968.00,59.223
968.50,58.814
969.00,58.456
969.50,58.102
970.00,57.746
970.50,57.364
971.00,56.992
971.50,56.669
972.00,56.342
972.50,55.989
973.00,55.664
973.50,55.392
974.00,55.089
974.50,54.737
975.00,54.445
975.50,54.160
976.00,53.859
976.50,53.579
977.00,53.299
977.50,53.051
978.00,52.807
978.50,52.545
979.00,52.290
979.50,52.049
980.00,51.842
980.50,51.593
981.00,51.411
981.50,51.242
982.00,51.027
982.50,50.818
983.00,50.646
983.50,50.444
984.00,50.268
984.50,50.085
985.00,49.929
985.50,49.756
986.00,49.618
986.50,49.479
987.00,49.334
987.50,49.184
988.00,49.039
988.50,48.940
989.00,48.769
989.50,48.699
990.00,48.593
990.50,48.478
991.00,48.396
991.50,48.245
992.00,48.191
992.50,48.124
993.00,48.016
993.50,47.990
994.00,47.879
994.50,47.812
995.00,47.783
995.50,47.719
996.00,47.714
996.50,47.600
997.00,47.554
997.50,47.540
998.00,47.509
998.50,47.501
999.00,47.449
999.50,47.430
1000.00,47.491
1000.50,47.431
1001.00,47.395
1001.50,47.448
1002.00,47.429
1002.50,47.435
1003.00,47.431
1003.50,47.470
1004.00,47.526
1004.50,47.548
1005.00,47.577
1005.50,47.588
1006.00,47.615
1006.50,47.663
1007.00,47.727
1007.50,47.780
1008.00,47.860
1008.50,47.930
1009.00,47.967
1009.50,48.049
1010.00,48.133
1010.50,48.201
1011.00,48.275
1011.50,48.376
1012.00,48.456
1012.50,48.576
1013.00,48.672
1013.50,48.791
1014.00,48.889
1014.50,48.986
1015.00,49.124
1015.50,49.213
1016.00,49.381
1016.50,49.493
1017.00,49.648
1017.50,49.790
1018.00,49.917
1018.50,50.099
1019.00,50.213
1019.50,50.396
1020.00,50.510
1020.50,50.701
1021.00,50.858
1021.50,51.025
1022.00,51.176
1022.50,51.370
1023.00,51.535
1023.50,51.729
1024.00,51.911
1024.50,52.094
1025.00,52.327
1025.50,52.493
1026.00,52.692
1026.50,52.908
1027.00,53.116
1027.50,53.325
1028.00,53.548
1028.50,53.737
1029.00,53.990
1029.50,54.213
1030.00,54.482
1030.50,54.708
1031.00,54.924
1031.50,55.193
1032.00,55.449
1032.50,55.697
1033.00,55.942
1033.50,56.204
1034.00,56.444
1034.50,56.739
1035.00,56.985
1035.50,57.259
1036.00,57.517
1036.50,57.804
1037.00,58.129
1037.50,58.389
1038.00,58.693
1038.50,58.953
1039.00,59.283
1039.50,59.589
1040.00,59.864
1040.50,60.153
1041.00,60.464
1041.50,60.840
1042.00,61.145
1042.50,61.446
1043.00,61.758
1043.50,62.086
1044.00,62.427
1044.50,62.718
1045.00,63.051
1045.50,63.404
1046.00,63.695
1046.50,64.035
1047.00,64.366
1047.50,64.712
1048.00,65.037
1048.50,65.334
1049.00,65.696
1049.50,66.061
1050.00,66.392
1050.50,66.748
1051.00,67.055
1051.50,67.453
1052.00,67.808
1052.50,68.117
1053.00,68.466
1053.50,68.897
1054.00,69.243
1054.50,69.558
1055.00,69.884
1055.50,70.276
1056.00,70.642
1056.50,70.942
1057.00,71.330
1057.50,71.675
1058.00,72.038
1058.50,72.391
1059.00,72.732
1059.50,73.066
1060.00,73.415
1060.50,73.721
1061.00,74.112
1061.50,74.451
1062.00,74.782
1062.50,75.107
1063.00,75.441
1063.50,75.792
1064.00,76.157
1064.50,76.433
1065.00,76.806
1065.50,77.117
1066.00,77.510
1066.50,77.835
1067.00,78.156
1067.50,78.494
1068.00,78.870
1068.50,79.213
1069.00,79.546
1069.50,79.831
1070.00,80.192
1070.50,80.528
1071.00,80.830
1071.50,81.142
1072.00,81.465
1072.50,81.815
1073.00,82.137
1073.50,82.425
1074.00,82.747
1074.50,83.044
1075.00,83.346
1075.50,83.634
1076.00,83.906
1076.50,84.206
1077.00,84.462
1077.50,84.773
1078.00,85.007
1078.50,85.283
1079.00,85.528
1079.50,85.796
1080.00,86.046
1080.50,86.274
1081.00,86.499
1081.50,86.772
1082.00,86.983
1082.50,87.221
1083.00,87.430
1083.50,87.652
1084.00,87.870
1084.50,88.116
1085.00,88.288
1085.50,88.508
1086.00,88.701
1086.50,88.895
1087.00,89.073
1087.50,89.235
1088.00,89.412
1088.50,89.584
1089.00,89.717
1089.50,89.889
1090.00,90.050
1090.50,90.181
1091.00,90.346
1091.50,90.423
1092.00,90.594
1092.50,90.704
1093.00,90.802
1093.50,90.913
1094.00,91.051
1094.50,91.144
1095.00,91.263
1095.50,91.364
1096.00,91.453
1096.50,91.580
1097.00,91.665
1097.50,91.735
1098.00,91.817
1098.50,91.893
1099.00,91.966
1099.50,92.034
1100.00,92.082
1100.50,92.121
1101.00,92.185
1101.50,92.229
1102.00,92.291
1102.50,92.334
1103.00,92.355
1103.50,92.392
1104.00,92.433
1104.50,92.441
1105.00,92.485
1105.50,92.512
1106.00,92.510
1106.50,92.527
1107.00,92.538
1107.50,92.532
1108.00,92.550
1108.50,92.569
1109.00,92.537
1109.50,92.542
1110.00,92.533
1110.50,92.593
1111.00,92.539
1111.50,92.484
1112.00,92.483
1112.50,92.467
1113.00,92.497
1113.50,92.437
1114.00,92.389
1114.50,92.382
1115.00,92.328
1115.50,92.293
1116.00,92.320
1116.50,92.241
1117.00,92.248
1117.50,92.193
1118.00,92.201
1118.50,92.153
1119.00,92.075
1119.50,92.089
1120.00,91.995
1120.50,91.968
1121.00,91.922
1121.50,91.894
1122.00,91.862
1122.50,91.769
1123.00,91.813
1123.50,91.639
1124.00,91.690
1124.50,91.674
1125.00,91.581
1125.50,91.539
1126.00,91.503
1126.50,91.447
1127.00,91.408
1127.50,91.324
1128.00,91.325
1128.50,91.271
1129.00,91.252
1129.50,91.171
1130.00,91.145
1130.50,91.111
1131.00,91.082
1131.50,90.995
1132.00,90.963
1132.50,90.928
1133.00,90.909
1133.50,90.861
1134.00,90.882
1134.50,90.753
1135.00,90.733
1135.50,90.740
1136.00,90.634
1136.50,90.622
1137.00,90.607
1137.50,90.542
1138.00,90.536
1138.50,90.476
1139.00,90.432
1139.50,90.413
1140.00,90.389
1140.50,90.333
1141.00,90.333
1141.50,90.313
1142.00,90.260
1142.50,90.225
1143.00,90.204
1143.50,90.191
1144.00,90.089
1144.50,90.145
1145.00,90.123
1145.50,90.066
1146.00,90.095
1146.50,90.035
1147.00,90.022
1147.50,89.997
1148.00,90.023
1148.50,89.952
1149.00,90.003
1149.50,89.908
1150.00,89.939
1150.50,89.934
1151.00,89.925
1151.50,89.899
1152.00,89.887
1152.50,89.847
1153.00,89.874
1153.50,89.851
1154.00,89.857
1154.50,89.857
1155.00,89.843
1155.50,89.849
1156.00,89.845
1156.50,89.833
1157.00,89.867
1157.50,89.837
1158.00,89.865
1158.50,89.848
1159.00,89.841
1159.50,89.865
1160.00,89.868
1160.50,89.883
1161.00,89.894
1161.50,89.900
1162.00,89.916
1162.50,89.922
1163.00,89.932
1163.50,89.881
1164.00,89.976
1164.50,89.974
1165.00,90.013
1165.50,90.018
1166.00,90.033
1166.50,90.087
1167.00,90.047
1167.50,90.093
1168.00,90.094
1168.50,90.115
1169.00,90.133
1169.50,90.141
1170.00,90.181
1170.50,90.210
1171.00,90.228
1171.50,90.242
1172.00,90.264
1172.50,90.284
1173.00,90.319
1173.50,90.332
1174.00,90.365
1174.50,90.358
1175.00,90.412
1175.50,90.439
1176.00,90.435
1176.50,90.469
1177.00,90.482
1177.50,90.553
1178.00,90.566
1178.50,90.578
1179.00,90.614
1179.50,90.658
1180.00,90.663
1180.50,90.701
1181.00,90.708
1181.50,90.731
1182.00,90.758
1182.50,90.775
1183.00,90.804
1183.50,90.869
1184.00,90.861
1184.50,90.887
1185.00,90.933
1185.50,90.947
1186.00,90.964
1186.50,91.016
1187.00,91.015
1187.50,91.040
1188.00,91.076
1188.50,91.085
1189.00,91.130
1189.50,91.159
1190.00,91.161
1190.50,91.221
1191.00,91.248
1191.50,91.250
1192.00,91.277
1192.50,91.288
1193.00,91.308
1193.50,91.310
1194.00,91.340
1194.50,91.374
1195.00,91.398
1195.50,91.428
1196.00,91.411
1196.50,91.456
1197.00,91.463
1197.50,91.484
1198.00,91.472
1198.50,91.506
1199.00,91.509
1199.50,91.518
1200.00,91.523
1200.50,91.523
1201.00,91.541
1201.50,91.560
1202.00,91.575
1202.50,91.530
1203.00,91.550
1203.50,91.580
1204.00,91.543
1204.50,91.557
1205.00,91.558
1205.50,91.610
1206.00,91.549
1206.50,91.572
1207.00,91.545
1207.50,91.522
1208.00,91.568
1208.50,91.509
1209.00,91.517
1209.50,91.492
1210.00,91.494
1210.50,91.449
1211.00,91.428
1211.50,91.432
1212.00,91.409
1212.50,91.393
1213.00,91.364
1213.50,91.338
1214.00,91.352
1214.50,91.300
1215.00,91.261
1215.50,91.260
1216.00,91.205
1216.50,91.193
1217.00,91.163
1217.50,91.144
1218.00,91.093
1218.50,91.055
1219.00,91.005
1219.50,90.968
1220.00,90.918
1220.50,90.911
1221.00,90.860
1221.50,90.819
1222.00,90.789
1222.50,90.738
1223.00,90.701
1223.50,90.651
1224.00,90.594
1224.50,90.554
1225.00,90.494
1225.50,90.436
1226.00,90.398
1226.50,90.327
1227.00,90.273
1227.50,90.201
1228.00,90.159
1228.50,90.105
1229.00,90.009
1229.50,89.968
1230.00,89.892
1230.50,89.828
1231.00,89.766
1231.50,89.716
1232.00,89.616
1232.50,89.558
1233.00,89.446
1233.50,89.403
1234.00,89.304
1234.50,89.239
1235.00,89.174
1235.50,89.085
1236.00,89.015
1236.50,88.936
1237.00,88.884
1237.50,88.818
1238.00,88.706
1238.50,88.616
1239.00,88.545
1239.50,88.448
1240.00,88.357
1240.50,88.249
1241.00,88.175
1241.50,88.098
1242.00,87.995
1242.50,87.873
1243.00,87.803
1243.50,87.711
1244.00,87.619
1244.50,87.516
1245.00,87.434
1245.50,87.316
1246.00,87.209
1246.50,87.152
1247.00,87.017
1247.50,86.927
1248.00,86.855
1248.50,86.746
1249.00,86.658
1249.50,86.553
1250.00,86.429
1250.50,86.320
1251.00,86.213
1251.50,86.090
1252.00,85.978
1252.50,85.879
1253.00,85.735
1253.50,85.595
1254.00,85.504
1254.50,85.384
1255.00,85.262
1255.50,85.152
1256.00,85.034
1256.50,84.909
1257.00,84.797
1257.50,84.691
1258.00,84.581
1258.50,84.448
1259.00,84.348
1259.50,84.244
1260.00,84.142
1260.50,84.050
1261.00,83.906
1261.50,83.841
1262.00,83.708
1262.50,83.613
1263.00,83.497
1263.50,83.370
1264.00,83.287
1264.50,83.154
1265.00,83.068
1265.50,82.945
1266.00,82.828
1266.50,82.742
1267.00,82.631
1267.50,82.542
1268.00,82.425
1268.50,82.312
1269.00,82.194
1269.50,82.079
1270.00,81.984
1270.50,81.883
1271.00,81.776
1271.50,81.686
1272.00,81.564
1272.50,81.482
1273.00,81.359
1273.50,81.240
1274.00,81.152
1274.50,81.015
1275.00,80.924
1275.50,80.789
1276.00,80.735
1276.50,80.616
1277.00,80.535
1277.50,80.429
1278.00,80.308
1278.50,80.235
1279.00,80.107
1279.50,79.983
1280.00,79.900
1280.50,79.799
1281.00,79.692
1281.50,79.593
1282.00,79.490
1282.50,79.382
1283.00,79.292
1283.50,79.184
1284.00,79.072
1284.50,78.978
1285.00,78.863
1285.50,78.782
1286.00,78.673
1286.50,78.579
1287.00,78.490
1287.50,78.385
1288.00,78.334
1288.50,78.209
1289.00,78.112
1289.50,78.030
1290.00,77.939
1290.50,77.866
1291.00,77.772
1291.50,77.675
1292.00,77.603
1292.50,77.501
1293.00,77.437
1293.50,77.300
1294.00,77.253
1294.50,77.127
1295.00,77.043
1295.50,76.959
1296.00,76.856
1296.50,76.801
1297.00,76.698
1297.50,76.620
1298.00,76.570
1298.50,76.476
1299.00,76.402
1299.50,76.318
1300.00,76.234
1300.50,76.144
1301.00,76.060
1301.50,76.000
1302.00,75.919
1302.50,75.865
1303.00,75.785
1303.50,75.714
1304.00,75.620
1304.50,75.516
1305.00,75.439
1305.50,75.327
1306.00,75.253
1306.50,75.151
1307.00,75.111
1307.50,75.032
1308.00,74.962
1308.50,74.898
1309.00,74.850
1309.50,74.762
1310.00,74.718
1310.50,74.650
1311.00,74.603
1311.50,74.530
1312.00,74.485
1312.50,74.399
1313.00,74.346
1313.50,74.285
1314.00,74.237
1314.50,74.162
1315.00,74.114
1315.50,74.079
1316.00,74.026
1316.50,73.981
1317.00,73.920
1317.50,73.883
1318.00,73.827
1318.50,73.795
1319.00,73.715
1319.50,73.680
1320.00,73.640
1320.50,73.037
1321.00,73.018
1321.50,72.960
1322.00,72.929
1322.50,72.864
1323.00,72.840
1323.50,72.831
1324.00,72.767
1324.50,72.735
1325.00,72.713
1325.50,72.716
1326.00,72.640
1326.50,72.651
1327.00,72.609
1327.50,72.559
1328.00,72.535
1328.50,72.518
1329.00,72.492
1329.50,72.482
1330.00,72.437
1330.50,72.424
1331.00,72.396
1331.50,72.385
1332.00,72.373
1332.50,72.356
1333.00,72.325
1333.50,72.308
1334.00,72.298
1334.50,72.291
1335.00,72.301
1335.50,72.243
1336.00,72.242
1336.50,72.273
1337.00,72.250
1337.50,72.235
1338.00,72.230
1338.50,72.217
1339.00,72.214
1339.50,72.193
1340.00,72.186
1340.50,72.206
1341.00,72.192
1341.50,72.189
1342.00,72.194
1342.50,72.216
1343.00,72.199
1343.50,72.216
1344.00,72.197
1344.50,72.160
1345.00,72.223
1345.50,72.184
1346.00,72.190
1346.50,72.200
1347.00,72.215
1347.50,72.144
1348.00,72.216
1348.50,72.220
1349.00,72.243
1349.50,72.298
1350.00,72.070
1350.50,72.249
1351.00,72.182
1351.50,72.232
1352.00,72.211
1352.50,72.266
1353.00,72.304
1353.50,72.291
1354.00,72.316
1354.50,72.126
1355.00,72.466
1355.50,72.179
1356.00,72.366
1356.50,72.401
1357.00,72.409
1357.50,72.441
1358.00,72.450
1358.50,72.396
1359.00,72.421
1359.50,72.494
1360.00,72.537
1360.50,72.422
1361.00,72.572
1361.50,72.519
1362.00,72.274
1362.50,72.697
1363.00,72.775
1363.50,72.700
1364.00,73.032
1364.50,72.676
1365.00,72.597
1365.50,72.941
1366.00,72.965
1366.50,72.862
1367.00,73.024
1367.50,72.786
1368.00,73.133
1368.50,73.077
1369.00,73.331
1369.50,73.072
1370.00,73.171
1370.50,73.125
1371.00,73.219
1371.50,73.531
1372.00,73.279
1372.50,73.534
1373.00,73.498
1373.50,73.617
1374.00,73.621
1374.50,73.534
1375.00,73.755
1375.50,73.689
1376.00,73.709
1376.50,73.732
1377.00,73.724
1377.50,73.850
1378.00,74.128
1378.50,73.608
1379.00,74.014
1379.50,73.918
1380.00,74.478
1380.50,73.492
1381.00,74.023
1381.50,74.008
1382.00,74.558
1382.50,73.131
1383.00,74.267
1383.50,74.025
1384.00,74.257
1384.50,74.280
1385.00,74.090
1385.50,74.236
1386.00,74.292
1386.50,74.339
1387.00,74.441
1387.50,74.338
1388.00,74.059
1388.50,74.340
1389.00,74.483
1389.50,74.277
1390.00,74.440
1390.50,74.355
1391.00,74.378
1391.50,74.468
1392.00,74.248
1392.50,74.248
1393.00,74.448
1393.50,74.379
1394.00,74.308
1394.50,74.283
1395.00,74.283
1395.50,74.128
1396.00,74.508
1396.50,74.265
1397.00,74.408
1397.50,74.543
1398.00,74.533
1398.50,74.461
1399.00,74.798
1399.50,74.292
1400.00,74.698
1400.50,74.135
1401.00,74.737
1401.50,74.495
1402.00,74.727
1402.50,74.872
1403.00,74.813
1403.50,74.924
1404.00,74.617
1404.50,75.445
1405.00,74.511
1405.50,75.110
1406.00,75.186
1406.50,75.426
1407.00,75.148
1407.50,75.323
1408.00,75.524
1408.50,75.684
1409.00,75.704
1409.50,75.592
1410.00,75.892
1410.50,76.038
1411.00,76.077
1411.50,76.323
1412.00,76.246
1412.50,76.413
1413.00,76.536
1413.50,76.830
1414.00,76.615
1414.50,76.622
1415.00,76.950
1415.50,77.071
1416.00,77.214
1416.50,77.276
1417.00,77.485
1417.50,77.480
1418.00,77.729
1418.50,77.764
1419.00,77.822
1419.50,77.959
1420.00,78.120
1420.50,78.313
1421.00,78.366
1421.50,78.542
1422.00,78.619
1422.50,78.699
1423.00,78.784
1423.50,78.843
1424.00,78.994
1424.50,79.174
1425.00,79.268
1425.50,79.356
1426.00,79.486
1426.50,79.623
1427.00,79.672
1427.50,79.823
1428.00,79.874
1428.50,79.998
1429.00,80.154
1429.50,80.226
1430.00,80.348
1430.50,80.493
1431.00,80.551
1431.50,80.642
1432.00,80.712
1432.50,80.837
1433.00,80.969
1433.50,81.092
1434.00,81.007
1434.50,81.279
1435.00,81.359
1435.50,81.531
1436.00,81.536
1436.50,81.673
1437.00,81.824
1437.50,81.792
1438.00,81.929
1438.50,82.046
1439.00,82.224
1439.50,82.208
1440.00,82.395
1440.50,82.403
1441.00,82.624
1441.50,82.574
1442.00,82.726
1442.50,82.899
1443.00,82.883
1443.50,83.043
1444.00,83.124
1444.50,83.128
1445.00,83.466
1445.50,83.302
1446.00,83.422
1446.50,83.602
1447.00,83.641
1447.50,83.764
1448.00,83.862
1448.50,83.887
1449.00,84.014
1449.50,84.061
1450.00,84.242
1450.50,84.208
1451.00,84.307
1451.50,84.434
1452.00,84.541
1452.50,84.654
1453.00,84.694
1453.50,84.817
1454.00,84.887
1454.50,84.944
1455.00,85.078
1455.50,85.086
1456.00,85.224
1456.50,85.269
1457.00,85.418
1457.50,85.444
1458.00,85.566
1458.50,85.615
1459.00,85.706
1459.50,85.734
1460.00,85.887
1460.50,85.825
1461.00,85.997
1461.50,86.053
1462.00,86.122
1462.50,86.192
1463.00,86.354
1463.50,86.310
1464.00,86.450
1464.50,86.491
1465.00,86.661
1465.50,86.613
1466.00,86.738
1466.50,86.775
1467.00,86.857
1467.50,86.930
1468.00,86.998
1468.50,87.077
1469.00,87.103
1469.50,87.315
1470.00,87.154
1470.50,87.436
1471.00,87.395
1471.50,87.415
1472.00,87.565
1472.50,87.571
1473.00,87.658
1473.50,87.753
1474.00,87.784
1474.50,87.877
1475.00,87.923
1475.50,88.042
1476.00,88.063
1476.50,88.113
1477.00,88.194
1477.50,88.317
1478.00,88.258
1478.50,88.353
1479.00,88.433
1479.50,88.477
1480.00,88.565
1480.50,88.585
1481.00,88.612
1481.50,88.731
1482.00,88.735
1482.50,88.823
1483.00,88.874
1483.50,88.922
1484.00,88.985
1484.50,89.021
1485.00,89.091
1485.50,89.132
1486.00,89.186
1486.50,89.259
1487.00,89.266
1487.50,89.337
1488.00,89.358
1488.50,89.455
1489.00,89.499
1489.50,89.514
1490.00,89.558
1490.50,89.624
1491.00,89.655
1491.50,89.675
1492.00,89.755
1492.50,89.763
1493.00,89.811
1493.50,89.849
1494.00,89.917
1494.50,89.946
1495.00,89.964
1495.50,90.034
1496.00,90.024
1496.50,90.062
1497.00,90.097
1497.50,90.165
1498.00,90.180
1498.50,90.203
1499.00,90.262
1499.50,90.311
1500.00,90.314
1500.50,90.332
1501.00,90.369
1501.50,90.404
1502.00,90.456
1502.50,90.458
1503.00,90.539
1503.50,90.532
1504.00,90.545
1504.50,90.607
1505.00,90.593
1505.50,90.626
1506.00,90.680
1506.50,90.676
1507.00,90.691
1507.50,90.749
1508.00,90.770
1508.50,90.784
1509.00,90.798
1509.50,90.825
1510.00,90.838
1510.50,90.849
1511.00,90.893
1511.50,90.919
1512.00,90.932
1512.50,90.973
1513.00,90.943
1513.50,90.999
1514.00,91.078
1514.50,90.996
1515.00,91.058
1515.50,91.055
1516.00,91.057
1516.50,91.124
1517.00,91.119
1517.50,91.133
1518.00,91.109
1518.50,91.152
1519.00,91.134
1519.50,91.163
1520.00,91.182
1520.50,91.190
1521.00,91.165
1521.50,91.236
1522.00,91.224
1522.50,91.213
1523.00,91.240
1523.50,91.222
1524.00,91.244
1524.50,91.305
1525.00,91.241
1525.50,91.263
1526.00,91.256
1526.50,91.290
1527.00,91.310
1527.50,91.294
1528.00,91.316
1528.50,91.290
1529.00,91.294
1529.50,91.321
1530.00,91.274
1530.50,91.327
1531.00,91.329
1531.50,91.277
1532.00,91.322
1532.50,91.318
1533.00,91.316
1533.50,91.305
1534.00,91.305
1534.50,91.294
1535.00,91.321
1535.50,91.316
1536.00,91.288
1536.50,91.308
1537.00,91.249
1537.50,91.280
1538.00,91.298
1538.50,91.343
1539.00,91.268
1539.50,91.282
1540.00,91.256
1540.50,91.249
1541.00,91.265
1541.50,91.252
1542.00,91.266
1542.50,91.239
1543.00,91.241
1543.50,91.201
1544.00,91.229
1544.50,91.175
1545.00,91.182
1545.50,91.217
1546.00,91.211
1546.50,91.161
1547.00,91.182
1547.50,91.174
1548.00,91.160
1548.50,91.163
1549.00,91.142
1549.50,91.114
1550.00,91.130
1550.50,91.127
1551.00,91.136
1551.50,91.117
1552.00,91.111
1552.50,91.110
1553.00,91.110
1553.50,91.063
1554.00,91.054
1554.50,91.033
1555.00,91.033
1555.50,91.014
1556.00,90.991
1556.50,91.017
1557.00,90.991
1557.50,90.989
1558.00,90.984
1558.50,90.960
1559.00,90.935
1559.50,90.924
1560.00,90.902
1560.50,90.906
1561.00,90.847
1561.50,90.875
1562.00,90.847
1562.50,90.846
1563.00,90.814
1563.50,90.804
1564.00,90.821
1564.50,90.801
1565.00,90.805
1565.50,90.749
1566.00,90.778
1566.50,90.758
1567.00,90.700
1567.50,90.716
1568.00,90.723
1568.50,90.682
1569.00,90.712
1569.50,90.656
1570.00,90.685
1570.50,90.645
1571.00,90.605
1571.50,90.621
1572.00,90.620
1572.50,90.569
1573.00,90.551
1573.50,90.540
1574.00,90.527
1574.50,90.521
1575.00,90.548
1575.50,90.520
1576.00,90.443
1576.50,90.440
1577.00,90.463
1577.50,90.432
1578.00,90.431
1578.50,90.392
1579.00,90.413
1579.50,90.396
1580.00,90.372
1580.50,90.360
1581.00,90.350
1581.50,90.324
1582.00,90.309
1582.50,90.308
1583.00,90.280
1583.50,90.273
1584.00,90.236
1584.50,90.222
1585.00,90.212
1585.50,90.214
1586.00,90.197
1586.50,90.160
1587.00,90.153
1587.50,90.137
1588.00,90.160
1588.50,90.131
1589.00,90.110
1589.50,90.091
1590.00,90.078
1590.50,90.041
1591.00,90.031
1591.50,89.995
1592.00,89.997
1592.50,89.945
1593.00,89.959
1593.50,89.972
1594.00,89.916
1594.50,89.924
1595.00,89.898
1595.50,89.906
1596.00,89.882
1596.50,89.860
1597.00,89.877
1597.50,89.860
1598.00,89.805
1598.50,89.833
1599.00,89.783
1599.50,89.779
1600.00,89.825
