"sample_g - RawData"
"Wavelength nm.","T%"
200.00,0.231
200.50,0.113
201.00,0.049
201.50,0.046
202.00,-0.123
202.50,0.013
203.00,0.070
203.50,0.017
204.00,-0.022
204.50,-0.004
205.00,-0.024
205.50,-0.091
206.00,-0.057
206.50,-0.007
207.00,0.050
207.50,0.126
208.00,0.016
208.50,-0.037
209.00,0.001
209.50,0.048
210.00,-0.013
210.50,0.049
211.00,0.013
211.50,-0.003
212.00,0.001
212.50,0.016
213.00,-0.034
213.50,0.069
214.00,0.003
214.50,-0.019
215.00,0.026
215.50,0.014
216.00,0.017
216.50,0.036
217.00,-0.039
217.50,0.021
218.00,0.040
218.50,0.015
219.00,0.019
219.50,0.044
220.00,-0.018
220.50,-0.003
221.00,-0.009
221.50,0.004
222.00,0.007
222.50,0.002
223.00,0.031
223.50,0.002
224.00,0.018
224.50,-0.000
225.00,0.015
225.50,0.010
226.00,-0.001
226.50,0.002
227.00,0.008
227.50,0.006
228.00,0.009
228.50,0.012
229.00,0.006
229.50,-0.004
230.00,0.002
230.50,0.017
231.00,0.004
231.50,0.008
232.00,0.006
232.50,0.018
233.00,-0.003
233.50,-0.003
234.00,0.005
234.50,0.012
235.00,0.008
235.50,-0.004
236.00,0.000
236.50,0.006
237.00,0.000
237.50,0.009
238.00,0.001
238.50,-0.009
239.00,-0.003
239.50,-0.005
240.00,0.014
240.50,-0.011
241.00,0.003
241.50,-0.001
242.00,0.006
242.50,-0.001
243.00,-0.004
243.50,-0.000
244.00,0.010
244.50,0.010
245.00,0.001
245.50,0.006
246.00,0.015
246.50,-0.001
247.00,0.003
247.50,-0.002
248.00,0.005
248.50,-0.005
249.00,0.002
249.50,-0.001
250.00,0.000
250.50,0.014
251.00,-0.009
251.50,-0.001
252.00,0.004
252.50,0.006
253.00,0.002
253.50,0.016
254.00,-0.001
254.50,-0.004
255.00,-0.006
255.50,-0.001
256.00,-0.002
256.50,0.017
257.00,-0.001
257.50,-0.003
258.00,0.002
258.50,0.007
259.00,-0.010
259.50,0.001
260.00,0.001
260.50,-0.000
261.00,0.006
261.50,0.005
262.00,0.004
262.50,0.004
263.00,0.006
263.50,-0.002
264.00,-0.004
264.50,-0.004
265.00,-0.003
265.50,0.003
266.00,0.003
266.50,-0.001
267.00,-0.002
267.50,0.002
268.00,-0.006
268.50,0.004
269.00,0.004
269.50,-0.007
270.00,-0.006
270.50,-0.000
271.00,0.000
271.50,0.005
272.00,0.010
272.50,0.006
273.00,-0.002
273.50,0.001
274.00,0.005
274.50,-0.004
275.00,0.003
275.50,0.005
276.00,-0.003
276.50,-0.003
277.00,0.005
277.50,0.006
278.00,-0.010
278.50,-0.009
279.00,0.000
279.50,-0.007
280.00,0.001
280.50,0.005
281.00,0.007
281.50,-0.001
282.00,-0.001
282.50,0.004
283.00,0.004
283.50,0.002
284.00,0.009
284.50,0.000
285.00,-0.001
285.50,0.001
286.00,0.007
286.50,0.001
287.00,0.006
287.50,0.008
288.00,0.004
288.50,0.002
289.00,0.001
289.50,-0.005
290.00,0.014
290.50,-0.003
291.00,0.005
291.50,-0.009
292.00,0.006
292.50,0.002
293.00,0.007
293.50,0.012
294.00,-0.002
294.50,0.000
295.00,0.011
295.50,0.008
296.00,-0.007
296.50,-0.001
297.00,0.009
297.50,0.004
298.00,0.002
298.50,0.005
299.00,0.003
299.50,0.001
300.00,0.007
300.50,-0.010
301.00,-0.020
301.50,-0.003
302.00,0.006
302.50,0.000
303.00,0.002
303.50,-0.012
304.00,-0.000
304.50,-0.004
305.00,-0.004
305.50,0.001
306.00,-0.002
306.50,0.002
307.00,-0.003
307.50,0.007
308.00,-0.010
308.50,0.007
309.00,-0.003
309.50,-0.001
310.00,0.009
310.50,0.007
311.00,-0.004
311.50,-0.006
312.00,-0.002
312.50,-0.007
313.00,0.006
313.50,0.008
314.00,-0.004
314.50,0.003
315.00,0.009
315.50,-0.004
316.00,-0.008
316.50,-0.007
317.00,-0.007
317.50,-0.012
318.00,-0.002
318.50,-0.006
319.00,0.003
319.50,0.006
320.00,0.000
320.50,-0.009
321.00,-0.006
321.50,0.005
322.00,-0.003
322.50,0.006
323.00,0.002
323.50,-0.004
324.00,0.001
324.50,0.005
325.00,-0.004
325.50,-0.005
326.00,-0.010
326.50,0.006
327.00,0.001
327.50,0.009
328.00,-0.012
328.50,0.005
329.00,-0.004
329.50,-0.012
330.00,0.014
330.50,-0.006
331.00,-0.015
331.50,-0.010
332.00,-0.014
332.50,0.002
333.00,-0.006
333.50,0.004
334.00,0.001
334.50,0.015
335.00,0.004
335.50,-0.009
336.00,0.012
336.50,-0.000
337.00,-0.003
337.50,-0.002
338.00,-0.019
338.50,-0.001
339.00,0.001
339.50,-0.012
340.00,-0.022
340.50,0.139
341.00,0.170
341.50,-0.079
342.00,-0.052
342.50,0.082
343.00,0.110
343.50,0.042
344.00,0.093
344.50,0.019
345.00,-0.142
345.50,-0.116
346.00,0.046
346.50,0.067
347.00,-0.006
347.50,0.045
348.00,-0.083
348.50,-0.042
349.00,0.032
349.50,0.019
350.00,0.057
350.50,-0.020
351.00,-0.002
351.50,0.024
352.00,0.029
352.50,0.005
353.00,0.012
353.50,0.027
354.00,-0.008
354.50,0.004
355.00,-0.009
355.50,-0.018
356.00,0.035
356.50,-0.003
357.00,0.006
357.50,-0.008
358.00,-0.007
358.50,-0.048
359.00,0.007
359.50,-0.022
360.00,0.002
360.50,0.003
361.00,0.005
361.50,-0.009
362.00,0.009
362.50,0.005
363.00,-0.018
363.50,0.004
364.00,0.007
364.50,0.002
365.00,0.002
365.50,0.002
366.00,0.013
366.50,0.004
367.00,0.013
367.50,-0.002
368.00,0.011
368.50,-0.003
369.00,0.008
369.50,-0.003
370.00,-0.011
370.50,-0.002
371.00,-0.001
371.50,0.002
372.00,-0.010
372.50,0.007
373.00,-0.005
373.50,-0.004
374.00,0.002
374.50,0.003
375.00,-0.001
375.50,0.004
376.00,0.001
376.50,-0.006
377.00,-0.002
377.50,0.007
378.00,-0.004
378.50,0.000
379.00,-0.012
379.50,-0.006
380.00,0.002
380.50,0.003
381.00,0.002
381.50,0.003
382.00,0.001
382.50,0.007
383.00,-0.007
383.50,-0.000
384.00,-0.008
384.50,0.006
385.00,0.008
385.50,-0.001
386.00,-0.008
386.50,-0.009
387.00,-0.003
387.50,0.002
388.00,-0.005
388.50,0.001
389.00,-0.005
389.50,-0.004
390.00,0.001
390.50,0.002
391.00,0.001
391.50,-0.003
392.00,-0.001
392.50,0.001
393.00,-0.005
393.50,-0.002
394.00,-0.000
394.50,-0.009
395.00,0.005
395.50,0.002
396.00,0.001
396.50,0.009
397.00,-0.001
397.50,0.003
398.00,-0.000
398.50,0.001
399.00,0.007
399.50,0.007
400.00,-0.005
400.50,-0.002
401.00,0.001
401.50,-0.001
402.00,-0.000
402.50,-0.004
403.00,-0.004
403.50,0.003
404.00,0.003
404.50,-0.001
405.00,-0.003
405.50,-0.001
406.00,-0.000
406.50,-0.007
407.00,0.006
407.50,-0.001
408.00,0.001
408.50,-0.009
409.00,-0.001
409.50,-0.002
410.00,-0.004
410.50,-0.003
411.00,-0.001
411.50,0.002
412.00,0.001
412.50,-0.000
413.00,0.005
413.50,-0.007
414.00,-0.008
414.50,0.005
415.00,0.000
415.50,-0.006
416.00,-0.003
416.50,0.002
417.00,-0.001
417.50,-0.006
418.00,-0.001
418.50,0.000
419.00,-0.003
419.50,0.002
420.00,-0.004
420.50,-0.008
421.00,-0.002
421.50,0.002
422.00,0.000
422.50,0.003
423.00,0.003
423.50,-0.005
424.00,0.001
424.50,-0.006
425.00,0.000
425.50,-0.002
426.00,-0.001
426.50,-0.004
427.00,-0.004
427.50,0.002
428.00,0.001
428.50,-0.001
429.00,-0.001
429.50,0.002
430.00,0.000
430.50,-0.002
431.00,-0.006
431.50,0.008
432.00,-0.006
432.50,0.008
433.00,-0.001
433.50,0.004
434.00,0.004
434.50,0.003
435.00,-0.006
435.50,-0.006
436.00,-0.003
436.50,0.007
437.00,-0.001
437.50,-0.002
438.00,-0.002
438.50,-0.002
439.00,-0.001
439.50,-0.003
440.00,-0.004
440.50,-0.003
441.00,-0.001
441.50,0.002
442.00,0.002
442.50,0.006
443.00,-0.009
443.50,-0.006
444.00,0.002
444.50,-0.005
445.00,-0.008
445.50,-0.005
446.00,-0.005
446.50,0.003
447.00,-0.005
447.50,-0.008
448.00,-0.001
448.50,0.002
449.00,0.005
449.50,0.004
450.00,0.000
450.50,-0.003
451.00,-0.003
451.50,-0.001
452.00,0.008
452.50,0.001
453.00,-0.008
453.50,-0.001
454.00,-0.006
454.50,-0.006
455.00,-0.001
455.50,-0.001
456.00,0.000
456.50,-0.005
457.00,-0.001
457.50,0.001
458.00,0.006
458.50,0.004
459.00,-0.007
459.50,0.001
460.00,-0.001
460.50,-0.002
461.00,-0.002
461.50,-0.003
462.00,-0.005
462.50,0.003
463.00,0.002
463.50,-0.006
464.00,0.001
464.50,-0.002
465.00,0.004
465.50,-0.005
466.00,0.001
466.50,-0.001
467.00,-0.004
467.50,-0.001
468.00,-0.000
468.50,-0.004
469.00,0.001
469.50,0.002
470.00,0.002
470.50,-0.004
471.00,0.001
471.50,-0.002
472.00,0.000
472.50,0.000
473.00,-0.004
473.50,-0.001
474.00,-0.005
474.50,-0.004
475.00,-0.003
475.50,-0.001
476.00,0.003
476.50,-0.004
477.00,-0.002
477.50,0.003
478.00,0.001
478.50,0.001
479.00,0.000
479.50,-0.004
480.00,0.001
480.50,-0.005
481.00,-0.002
481.50,-0.002
482.00,0.001
482.50,-0.004
483.00,-0.002
483.50,-0.002
484.00,-0.001
484.50,0.003
485.00,-0.001
485.50,0.000
486.00,0.002
486.50,-0.002
487.00,0.001
487.50,-0.000
488.00,-0.001
488.50,-0.000
489.00,-0.003
489.50,-0.006
490.00,-0.003
490.50,0.001
491.00,-0.003
491.50,-0.003
492.00,-0.002
492.50,-0.007
493.00,-0.004
493.50,0.002
494.00,0.003
494.50,0.007
495.00,0.000
495.50,-0.002
496.00,0.000
496.50,0.003
497.00,-0.001
497.50,-0.001
498.00,-0.006
498.50,-0.003
499.00,-0.003
499.50,0.001
500.00,0.000
500.50,-0.000
501.00,0.001
501.50,-0.002
502.00,0.007
502.50,-0.005
503.00,0.005
503.50,0.000
504.00,-0.002
504.50,-0.005
505.00,-0.002
505.50,0.010
506.00,0.000
506.50,0.002
507.00,0.003
507.50,-0.001
508.00,-0.002
508.50,0.008
509.00,-0.001
509.50,-0.005
510.00,-0.005
510.50,-0.003
511.00,-0.001
511.50,0.000
512.00,-0.000
512.50,-0.004
513.00,-0.003
513.50,-0.001
514.00,-0.001
514.50,0.000
515.00,-0.003
515.50,-0.001
516.00,-0.001
516.50,-0.002
517.00,0.003
517.50,-0.002
518.00,-0.001
518.50,0.000
519.00,-0.003
519.50,0.000
520.00,-0.002
520.50,-0.004
521.00,-0.005
521.50,0.003
522.00,0.000
522.50,-0.007
523.00,-0.002
523.50,0.000
524.00,-0.002
524.50,-0.000
525.00,0.003
525.50,-0.002
526.00,0.001
526.50,-0.000
527.00,0.000
527.50,-0.004
528.00,-0.005
528.50,-0.007
529.00,-0.001
529.50,-0.003
530.00,-0.008
530.50,0.004
531.00,0.004
531.50,-0.004
532.00,-0.002
532.50,0.003
533.00,-0.004
533.50,-0.003
534.00,0.001
534.50,-0.002
535.00,0.003
535.50,-0.007
536.00,-0.005
536.50,0.001
537.00,0.001
537.50,-0.004
538.00,0.001
538.50,-0.003
539.00,-0.005
539.50,-0.002
540.00,0.003
540.50,-0.002
541.00,0.001
541.50,0.000
542.00,0.000
542.50,-0.002
543.00,-0.005
543.50,-0.002
544.00,0.001
544.50,-0.001
545.00,-0.000
545.50,0.005
546.00,0.004
546.50,-0.005
547.00,0.000
547.50,-0.003
548.00,-0.001
548.50,-0.000
549.00,-0.004
549.50,0.002
550.00,-0.000
550.50,-0.003
551.00,0.002
551.50,-0.001
552.00,-0.002
552.50,0.002
553.00,-0.007
553.50,0.001
554.00,-0.000
554.50,0.002
555.00,-0.000
555.50,-0.001
556.00,-0.002
556.50,0.003
557.00,0.001
557.50,0.001
558.00,0.001
558.50,-0.002
559.00,0.000
559.50,-0.005
560.00,-0.000
560.50,-0.004
561.00,-0.001
561.50,0.001
562.00,-0.000
562.50,-0.003
563.00,-0.000
563.50,-0.001
564.00,0.002
564.50,-0.002
565.00,0.001
565.50,-0.000
566.00,0.001
566.50,0.000
567.00,-0.003
567.50,-0.005
568.00,0.002
568.50,-0.001
569.00,-0.002
569.50,0.000
570.00,0.003
570.50,0.001
571.00,-0.000
571.50,0.001
572.00,-0.002
572.50,0.001
573.00,0.000
573.50,-0.002
574.00,0.001
574.50,0.001
575.00,-0.000
575.50,0.000
576.00,0.003
576.50,0.003
577.00,0.002
577.50,-0.001
578.00,-0.005
578.50,-0.001
579.00,0.001
579.50,0.001
580.00,0.004
580.50,-0.004
581.00,0.002
581.50,-0.002
582.00,-0.000
582.50,0.000
583.00,0.002
583.50,-0.000
584.00,0.002
584.50,-0.000
585.00,-0.001
585.50,0.003
586.00,0.000
586.50,0.001
587.00,-0.001
587.50,-0.002
588.00,0.003
588.50,0.001
589.00,0.001
589.50,0.002
590.00,0.002
590.50,0.001
591.00,0.002
591.50,0.002
592.00,0.001
592.50,0.003
593.00,-0.000
593.50,0.002
594.00,0.002
594.50,0.001
595.00,0.003
595.50,0.006
596.00,0.011
596.50,0.009
597.00,0.010
597.50,0.020
598.00,0.025
598.50,0.035
599.00,0.043
599.50,0.057
600.00,0.072
600.50,0.096
601.00,0.118
601.50,0.160
602.00,0.198
602.50,0.248
603.00,0.323
603.50,0.400
604.00,0.503
604.50,0.637
605.00,0.802
605.50,0.979
606.00,1.192
606.50,1.445
607.00,1.772
607.50,2.128
608.00,2.555
608.50,3.024
609.00,3.594
609.50,4.214
610.00,4.918
610.50,5.666
611.00,6.608
611.50,7.583
612.00,8.605
612.50,9.765
613.00,11.055
613.50,12.352
614.00,13.685
614.50,15.268
615.00,16.755
615.50,18.384
616.00,20.029
616.50,21.683
617.00,23.421
617.50,25.247
618.00,27.156
618.50,29.026
619.00,30.869
619.50,32.578
620.00,34.549
620.50,36.428
621.00,38.397
621.50,40.244
622.00,42.107
622.50,43.888
623.00,45.531
623.50,47.185
624.00,48.991
624.50,50.587
625.00,52.348
625.50,53.681
626.00,55.251
626.50,56.653
627.00,58.060
627.50,59.477
628.00,60.768
628.50,62.110
629.00,63.308
629.50,64.372
630.00,65.422
630.50,66.551
631.00,67.667
631.50,68.604
632.00,69.498
632.50,70.353
633.00,71.054
633.50,72.152
634.00,72.741
634.50,73.544
635.00,74.086
635.50,74.733
636.00,75.619
636.50,76.051
637.00,76.645
637.50,77.203
638.00,77.771
638.50,78.338
639.00,78.753
639.50,79.293
640.00,79.422
640.50,80.008
641.00,80.430
641.50,80.662
642.00,81.135
642.50,81.385
643.00,81.894
643.50,81.853
644.00,82.161
644.50,82.480
645.00,82.729
645.50,82.981
646.00,83.367
646.50,83.705
647.00,83.573
647.50,83.700
648.00,84.093
648.50,84.287
649.00,84.380
649.50,84.608
650.00,84.821
650.50,84.824
651.00,84.995
651.50,85.005
652.00,85.228
652.50,85.351
653.00,85.582
653.50,85.575
654.00,85.858
654.50,86.088
655.00,85.941
655.50,86.164
656.00,85.965
656.50,86.302
657.00,86.245
657.50,86.508
658.00,86.482
658.50,86.567
659.00,86.685
659.50,86.790
660.00,86.662
660.50,86.875
661.00,86.994
661.50,86.989
662.00,86.937
662.50,87.179
663.00,87.063
663.50,87.128
664.00,87.061
664.50,87.083
665.00,87.185
665.50,87.052
666.00,87.261
666.50,87.504
667.00,87.456
667.50,87.372
668.00,87.518
668.50,87.545
669.00,87.528
669.50,87.429
670.00,87.749
670.50,87.564
671.00,87.760
671.50,87.543
672.00,87.645
672.50,87.628
673.00,87.653
673.50,87.654
674.00,87.644
674.50,87.710
675.00,87.793
675.50,87.846
676.00,88.089
676.50,87.761
677.00,87.904
677.50,88.017
678.00,87.924
678.50,88.098
679.00,87.968
679.50,87.834
680.00,87.834
680.50,87.981
681.00,87.898
681.50,87.976
682.00,88.080
682.50,88.013
683.00,88.188
683.50,88.133
684.00,88.276
684.50,88.072
685.00,88.140
685.50,88.077
686.00,88.101
686.50,88.215
687.00,88.306
687.50,87.973
688.00,88.298
688.50,88.382
689.00,88.137
689.50,88.117
690.00,88.103
690.50,88.284
691.00,88.116
691.50,88.412
692.00,88.017
692.50,88.429
693.00,88.243
693.50,88.333
694.00,88.325
694.50,88.018
695.00,88.525
695.50,88.248
696.00,88.434
696.50,88.342
697.00,88.181
697.50,88.237
698.00,88.332
698.50,88.150
699.00,88.244
699.50,88.421
700.00,88.375
700.50,88.356
701.00,88.326
701.50,88.089
702.00,88.503
702.50,88.576
703.00,88.163
703.50,88.421
704.00,88.347
704.50,88.535
705.00,88.326
705.50,88.352
706.00,88.594
706.50,88.499
707.00,88.388
707.50,88.594
708.00,88.353
708.50,88.340
709.00,88.615
709.50,88.294
710.00,88.247
710.50,88.426
711.00,88.444
711.50,88.231
712.00,88.312
712.50,88.287
713.00,88.514
713.50,88.360
714.00,88.210
714.50,88.324
715.00,88.274
715.50,88.674
716.00,88.270
716.50,88.451
717.00,88.197
717.50,88.665
718.00,88.244
718.50,88.557
719.00,88.007
719.50,88.613
720.00,88.295
720.50,88.665
721.00,88.369
721.50,88.563
722.00,88.571
722.50,88.331
723.00,88.618
723.50,88.225
724.00,88.227
724.50,88.276
725.00,88.572
725.50,88.164
726.00,88.696
726.50,88.277
727.00,88.423
727.50,88.398
728.00,88.183
728.50,88.387
729.00,88.580
729.50,88.399
730.00,88.524
730.50,88.043
731.00,88.319
731.50,88.630
732.00,88.657
732.50,88.458
733.00,88.498
733.50,88.659
734.00,88.361
734.50,88.496
735.00,88.252
735.50,88.580
736.00,88.415
736.50,88.448
737.00,88.652
737.50,88.463
738.00,88.416
738.50,88.705
739.00,88.389
739.50,88.460
740.00,88.347
740.50,88.657
741.00,88.369
741.50,88.385
742.00,88.292
742.50,88.440
743.00,88.304
743.50,88.299
744.00,88.447
744.50,88.386
745.00,88.187
745.50,88.719
746.00,88.294
746.50,88.438
747.00,88.274
747.50,88.446
748.00,88.539
748.50,88.811
749.00,88.570
749.50,88.529
750.00,88.607
750.50,88.418
751.00,88.672
751.50,88.573
752.00,88.274
752.50,88.384
753.00,88.819
753.50,88.221
754.00,88.379
754.50,88.252
755.00,88.441
755.50,88.756
756.00,88.678
756.50,88.601
757.00,88.296
757.50,88.627
758.00,88.383
758.50,88.428
759.00,88.395
759.50,88.714
760.00,88.098
760.50,88.479
761.00,88.407
761.50,88.351
762.00,88.784
762.50,88.767
763.00,88.357
763.50,88.671
764.00,88.292
764.50,88.300
765.00,88.467
765.50,88.271
766.00,88.513
766.50,88.295
767.00,87.827
767.50,88.417
768.00,88.312
768.50,88.375
769.00,88.519
769.50,88.340
770.00,88.211
770.50,88.121
771.00,88.592
771.50,88.427
772.00,88.209
772.50,88.459
773.00,88.447
773.50,88.098
774.00,88.278
774.50,88.243
775.00,88.303
775.50,88.589
776.00,88.489
776.50,88.486
777.00,88.276
777.50,88.012
778.00,88.305
778.50,88.241
779.00,88.435
779.50,88.535
780.00,88.204
780.50,88.420
781.00,88.288
781.50,88.470
782.00,88.305
782.50,88.537
783.00,88.047
783.50,88.733
784.00,88.432
784.50,88.107
785.00,88.255
785.50,88.156
786.00,88.502
786.50,88.259
787.00,88.344
787.50,88.512
788.00,88.243
788.50,88.401
789.00,88.373
789.50,88.208
790.00,88.002
790.50,88.283
791.00,88.189
791.50,87.938
792.00,88.455
792.50,88.216
793.00,88.503
793.50,88.333
794.00,88.100
794.50,88.357
795.00,88.597
795.50,88.321
796.00,88.443
796.50,88.126
797.00,88.050
797.50,88.495
798.00,88.216
798.50,87.995
799.00,87.918
799.50,88.594
800.00,88.161
800.50,88.133
801.00,88.330
801.50,88.595
802.00,88.583
802.50,88.765
803.00,88.312
803.50,88.106
804.00,88.742
804.50,88.416
805.00,87.829
805.50,88.014
806.00,88.154
806.50,88.393
807.00,88.485
807.50,88.158
808.00,88.361
808.50,88.039
809.00,87.881
809.50,87.929
810.00,88.516
810.50,88.664
811.00,87.870
811.50,88.543
812.00,88.339
812.50,88.563
813.00,88.509
813.50,88.213
814.00,87.805
814.50,87.854
815.00,88.162
815.50,88.647
816.00,88.426
816.50,87.855
817.00,87.552
817.50,87.478
818.00,88.172
818.50,88.255
819.00,88.457
819.50,88.337
820.00,87.824
820.50,88.382
821.00,88.418
821.50,88.379
822.00,87.532
822.50,88.055
823.00,88.625
823.50,88.031
824.00,88.067
824.50,88.389
825.00,87.710
825.50,88.000
826.00,88.243
826.50,87.971
827.00,88.193
827.50,88.393
828.00,88.273
828.50,87.948
829.00,87.790
829.50,88.793
830.00,88.024
830.50,88.100
831.00,87.779
831.50,88.116
832.00,87.990
832.50,88.314
833.00,88.830
833.50,88.129
834.00,88.665
834.50,87.880
835.00,88.401
835.50,88.118
836.00,87.884
836.50,87.192
837.00,88.209
837.50,88.136
838.00,88.555
838.50,88.627
839.00,88.067
839.50,88.397
840.00,88.024
840.50,88.003
841.00,87.916
841.50,88.176
842.00,87.859
842.50,88.289
843.00,88.293
843.50,88.063
844.00,88.649
844.50,88.228
845.00,88.180
845.50,87.915
846.00,88.318
846.50,88.025
847.00,87.771
847.50,88.939
848.00,87.466
848.50,88.129
849.00,87.883
849.50,87.858
850.00,87.836
850.50,88.450
851.00,87.535
851.50,88.585
852.00,88.261
852.50,88.625
853.00,88.601
853.50,88.123
854.00,87.715
854.50,88.267
855.00,88.110
855.50,88.408
856.00,88.719
856.50,88.282
857.00,87.946
857.50,88.021
858.00,88.976
858.50,87.624
859.00,88.529
859.50,88.548
860.00,88.662
860.50,88.824
861.00,87.847
861.50,88.250
862.00,88.267
862.50,88.296
863.00,88.971
863.50,88.735
864.00,88.420
864.50,89.446
865.00,88.777
865.50,87.756
866.00,87.958
866.50,88.557
867.00,87.878
867.50,88.511
868.00,88.155
868.50,88.332
869.00,89.216
869.50,88.213
870.00,88.885
870.50,88.565
871.00,88.808
871.50,88.992
872.00,88.190
872.50,88.478
873.00,89.345
873.50,88.104
874.00,88.556
874.50,88.534
875.00,89.860
875.50,87.740
876.00,89.524
876.50,89.317
877.00,88.280
877.50,89.179
878.00,87.702
878.50,88.572
879.00,88.871
879.50,88.716
880.00,88.694
880.50,89.202
881.00,87.762
881.50,88.457
882.00,89.174
882.50,89.094
883.00,87.365
883.50,86.744
884.00,88.147
884.50,87.111
885.00,87.926
885.50,88.184
886.00,89.930
886.50,87.717
887.00,87.478
887.50,87.651
888.00,89.264
888.50,89.291
889.00,89.232
889.50,87.659
890.00,88.555
890.50,90.955
891.00,88.456
891.50,89.077
892.00,88.048
892.50,87.054
893.00,90.149
893.50,91.992
894.00,90.376
894.50,89.929
895.00,87.916
895.50,88.259
896.00,88.754
896.50,89.192
897.00,91.451
897.50,86.802
898.00,86.134
898.50,87.191
899.00,88.800
899.50,88.297
900.00,89.313
900.50,89.571
901.00,89.668
901.50,89.535
902.00,89.650
902.50,89.533
903.00,89.470
903.50,89.422
904.00,89.748
904.50,89.625
905.00,89.567
905.50,89.643
906.00,89.415
906.50,89.645
907.00,89.542
907.50,89.692
908.00,89.645
908.50,89.828
909.00,89.772
909.50,89.654
910.00,89.602
910.50,89.635
911.00,89.593
911.50,89.660
912.00,89.480
912.50,89.767
913.00,89.780
913.50,89.677
914.00,89.630
914.50,89.647
915.00,89.684
915.50,89.597
916.00,89.574
916.50,89.490
917.00,89.575
917.50,89.668
918.00,89.719
918.50,89.584
919.00,89.699
919.50,89.701
920.00,89.636
920.50,89.653
921.00,89.683
921.50,89.614
922.00,89.793
922.50,89.740
923.00,89.649
923.50,89.681
924.00,89.701
924.50,89.739
925.00,89.771
925.50,89.760
926.00,89.779
926.50,89.739
927.00,89.686
927.50,89.770
928.00,89.742
928.50,89.736
929.00,89.659
929.50,89.694
930.00,89.761
930.50,89.761
931.00,89.689
931.50,89.789
932.00,89.863
932.50,89.656
933.00,89.775
933.50,89.707
934.00,89.871
934.50,89.793
935.00,89.716
935.50,89.776
936.00,89.878
936.50,89.853
937.00,89.739
937.50,89.840
938.00,89.805
938.50,89.856
939.00,89.737
939.50,89.810
940.00,89.771
940.50,89.734
941.00,89.809
941.50,89.841
942.00,89.879
942.50,89.754
943.00,89.788
943.50,89.835
944.00,89.908
944.50,89.762
945.00,89.762
945.50,89.801
946.00,89.826
946.50,89.860
947.00,89.774
947.50,89.793
948.00,89.851
948.50,89.946
949.00,89.796
949.50,89.841
950.00,89.861
950.50,89.907
951.00,89.842
951.50,89.882
952.00,89.943
952.50,89.862
953.00,89.883
953.50,89.923
954.00,89.902
954.50,89.812
955.00,89.931
955.50,89.905
956.00,89.916
956.50,89.949
957.00,89.871
957.50,89.897
958.00,89.947
958.50,89.922
959.00,89.902
959.50,89.934
960.00,89.894
960.50,89.956
961.00,90.006
961.50,89.921
962.00,89.952
962.50,89.875
963.00,89.962
963.50,89.850
964.00,89.964
964.50,89.958
965.00,89.943
965.50,90.014
966.00,89.963
966.50,90.024
967.00,89.955
967.50,89.957
968.00,89.994
968.50,90.029
969.00,90.009
969.50,90.007
970.00,89.989
970.50,90.019
971.00,89.993
971.50,89.991
972.00,90.008
972.50,89.974
973.00,89.988
973.50,90.041
974.00,90.053
974.50,90.033
975.00,90.042
975.50,89.960
976.00,89.996
976.50,89.997
977.00,90.000
977.50,89.999
978.00,90.079
978.50,90.058
979.00,90.041
979.50,90.039
980.00,90.025
980.50,90.031
981.00,90.059
981.50,90.080
982.00,90.073
982.50,90.045
983.00,90.047
983.50,90.065
984.00,90.102
984.50,90.095
985.00,90.073
985.50,90.082
986.00,90.098
986.50,90.113
987.00,90.100
987.50,90.084
988.00,90.118
988.50,90.094
989.00,90.071
989.50,90.121
990.00,90.085
990.50,90.123
991.00,90.031
991.50,90.132
992.00,90.148
992.50,90.118
993.00,90.155
993.50,90.106
994.00,90.142
994.50,90.104
995.00,90.117
995.50,90.116
996.00,90.093
996.50,90.104
997.00,90.160
997.50,90.156
998.00,90.124
998.50,90.175
999.00,90.180
999.50,90.133
1000.00,90.206
1000.50,90.131
1001.00,90.183
1001.50,90.182
1002.00,90.152
1002.50,90.208
1003.00,90.176
1003.50,90.164
1004.00,90.202
1004.50,90.176
1005.00,90.187
1005.50,90.183
1006.00,90.180
1006.50,90.181
1007.00,90.179
1007.50,90.207
1008.00,90.175
1008.50,90.190
1009.00,90.207
1009.50,90.154
1010.00,90.180
1010.50,90.191
1011.00,90.192
1011.50,90.185
1012.00,90.186
1012.50,90.225
1013.00,90.177
1013.50,90.202
1014.00,90.213
1014.50,90.192
1015.00,90.212
1015.50,90.183
1016.00,90.176
1016.50,90.203
1017.00,90.191
1017.50,90.197
1018.00,90.220
1018.50,90.247
1019.00,90.201
1019.50,90.255
1020.00,90.264
1020.50,90.220
1021.00,90.274
1021.50,90.290
1022.00,90.258
1022.50,90.270
1023.00,90.222
1023.50,90.242
1024.00,90.227
1024.50,90.290
1025.00,90.289
1025.50,90.243
1026.00,90.247
1026.50,90.259
1027.00,90.250
1027.50,90.305
1028.00,90.272
1028.50,90.224
1029.00,90.276
1029.50,90.258
1030.00,90.288
1030.50,90.255
1031.00,90.235
1031.50,90.292
1032.00,90.328
1032.50,90.276
1033.00,90.277
1033.50,90.288
1034.00,90.282
1034.50,90.285
1035.00,90.268
1035.50,90.310
1036.00,90.262
1036.50,90.284
1037.00,90.299
1037.50,90.286
1038.00,90.327
1038.50,90.332
1039.00,90.327
1039.50,90.329
1040.00,90.306
1040.50,90.310
1041.00,90.337
1041.50,90.375
1042.00,90.331
1042.50,90.329
1043.00,90.339
1043.50,90.328
1044.00,90.349
1044.50,90.319
1045.00,90.331
1045.50,90.343
1046.00,90.337
1046.50,90.359
1047.00,90.359
1047.50,90.353
1048.00,90.327
1048.50,90.331
1049.00,90.310
1049.50,90.352
1050.00,90.309
1050.50,90.332
1051.00,90.310
1051.50,90.342
1052.00,90.338
1052.50,90.318
1053.00,90.367
1053.50,90.350
1054.00,90.377
1054.50,90.344
1055.00,90.354
1055.50,90.375
1056.00,90.384
1056.50,90.342
1057.00,90.363
1057.50,90.352
1058.00,90.406
1058.50,90.380
1059.00,90.344
1059.50,90.433
1060.00,90.405
1060.50,90.378
1061.00,90.410
1061.50,90.377
1062.00,90.399
1062.50,90.377
1063.00,90.435
1063.50,90.417
1064.00,90.413
1064.50,90.385
1065.00,90.403
1065.50,90.390
1066.00,90.417
1066.50,90.410
1067.00,90.417
1067.50,90.415
1068.00,90.438
1068.50,90.438
1069.00,90.406
1069.50,90.402
1070.00,90.413
1070.50,90.428
1071.00,90.399
1071.50,90.404
1072.00,90.399
1072.50,90.418
1073.00,90.398
1073.50,90.422
1074.00,90.430
1074.50,90.440
1075.00,90.445
1075.50,90.402
1076.00,90.421
1076.50,90.448
1077.00,90.421
1077.50,90.471
1078.00,90.458
1078.50,90.445
1079.00,90.491
1079.50,90.477
1080.00,90.474
1080.50,90.476
1081.00,90.455
1081.50,90.473
1082.00,90.505
1082.50,90.492
1083.00,90.476
1083.50,90.496
1084.00,90.482
1084.50,90.493
1085.00,90.463
1085.50,90.486
1086.00,90.504
1086.50,90.476
1087.00,90.483
1087.50,90.488
1088.00,90.496
1088.50,90.509
1089.00,90.500
1089.50,90.475
1090.00,90.488
1090.50,90.495
1091.00,90.485
1091.50,90.499
1092.00,90.504
1092.50,90.484
1093.00,90.473
1093.50,90.468
1094.00,90.489
1094.50,90.499
1095.00,90.494
1095.50,90.516
1096.00,90.513
1096.50,90.543
1097.00,90.532
1097.50,90.508
1098.00,90.515
1098.50,90.527
1099.00,90.535
1099.50,90.535
1100.00,90.546
1100.50,90.548
1101.00,90.511
1101.50,90.553
1102.00,90.561
1102.50,90.552
1103.00,90.571
1103.50,90.538
1104.00,90.568
1104.50,90.565
1105.00,90.587
1105.50,90.581
1106.00,90.547
1106.50,90.556
1107.00,90.566
1107.50,90.555
1108.00,90.573
1108.50,90.557
1109.00,90.559
1109.50,90.569
1110.00,90.566
1110.50,90.566
1111.00,90.577
1111.50,90.555
1112.00,90.520
1112.50,90.543
1113.00,90.534
1113.50,90.537
1114.00,90.567
1114.50,90.546
1115.00,90.537
1115.50,90.550
1116.00,90.590
1116.50,90.545
1117.00,90.606
1117.50,90.530
1118.00,90.615
1118.50,90.596
1119.00,90.579
1119.50,90.612
1120.00,90.612
1120.50,90.567
1121.00,90.615
1121.50,90.635
1122.00,90.615
1122.50,90.602
1123.00,90.634
1123.50,90.550
1124.00,90.624
1124.50,90.629
1125.00,90.671
1125.50,90.570
1126.00,90.640
1126.50,90.618
1127.00,90.665
1127.50,90.616
1128.00,90.626
1128.50,90.627
1129.00,90.670
1129.50,90.622
1130.00,90.592
1130.50,90.616
1131.00,90.659
1131.50,90.615
1132.00,90.599
1132.50,90.636
1133.00,90.642
1133.50,90.604
1134.00,90.673
1134.50,90.645
1135.00,90.543
1135.50,90.706
1136.00,90.545
1136.50,90.596
1137.00,90.655
1137.50,90.589
1138.00,90.646
1138.50,90.614
1139.00,90.622
1139.50,90.635
1140.00,90.653
1140.50,90.676
1141.00,90.677
1141.50,90.668
1142.00,90.636
1142.50,90.681
1143.00,90.654
1143.50,90.666
1144.00,90.613
1144.50,90.685
1145.00,90.674
1145.50,90.674
1146.00,90.654
1146.50,90.659
1147.00,90.691
1147.50,90.654
1148.00,90.731
1148.50,90.670
1149.00,90.750
1149.50,90.676
1150.00,90.690
1150.50,90.727
1151.00,90.702
1151.50,90.709
1152.00,90.697
1152.50,90.662
1153.00,90.685
1153.50,90.711
1154.00,90.698
1154.50,90.689
1155.00,90.680
1155.50,90.722
1156.00,90.670
1156.50,90.679
1157.00,90.701
1157.50,90.683
1158.00,90.679
1158.50,90.713
1159.00,90.676
1159.50,90.681
1160.00,90.736
1160.50,90.703
1161.00,90.709
1161.50,90.707
1162.00,90.712
1162.50,90.709
1163.00,90.735
1163.50,90.622
1164.00,90.708
1164.50,90.728
1165.00,90.727
1165.50,90.729
1166.00,90.733
1166.50,90.721
1167.00,90.710
1167.50,90.752
1168.00,90.732
1168.50,90.745
1169.00,90.747
1169.50,90.742
1170.00,90.768
1170.50,90.753
1171.00,90.758
1171.50,90.761
1172.00,90.764
1172.50,90.760
1173.00,90.753
1173.50,90.760
1174.00,90.749
1174.50,90.751
1175.00,90.784
1175.50,90.791
1176.00,90.776
1176.50,90.751
1177.00,90.759
1177.50,90.790
1178.00,90.765
1178.50,90.746
1179.00,90.747
1179.50,90.756
1180.00,90.748
1180.50,90.753
1181.00,90.751
1181.50,90.743
1182.00,90.731
1182.50,90.732
1183.00,90.722
1183.50,90.734
1184.00,90.739
1184.50,90.758
1185.00,90.748
1185.50,90.745
1186.00,90.783
1186.50,90.750
1187.00,90.751
1187.50,90.757
1188.00,90.752
1188.50,90.767
1189.00,90.763
1189.50,90.780
1190.00,90.752
1190.50,90.797
1191.00,90.791
1191.50,90.785
1192.00,90.799
1192.50,90.814
1193.00,90.812
1193.50,90.810
1194.00,90.817
1194.50,90.820
1195.00,90.832
1195.50,90.834
1196.00,90.830
1196.50,90.859
1197.00,90.814
1197.50,90.841
1198.00,90.835
1198.50,90.817
1199.00,90.831
1199.50,90.831
1200.00,90.820
1200.50,90.814
1201.00,90.820
1201.50,90.817
1202.00,90.827
1202.50,90.812
1203.00,90.824
1203.50,90.832
1204.00,90.798
1204.50,90.813
1205.00,90.795
1205.50,90.794
1206.00,90.805
1206.50,90.819
1207.00,90.783
1207.50,90.781
1208.00,90.775
1208.50,90.791
1209.00,90.814
1209.50,90.815
1210.00,90.810
1210.50,90.810
1211.00,90.788
1211.50,90.798
1212.00,90.822
1212.50,90.809
1213.00,90.797
1213.50,90.812
1214.00,90.807
1214.50,90.835
1215.00,90.830
1215.50,90.839
1216.00,90.810
1216.50,90.829
1217.00,90.822
1217.50,90.843
1218.00,90.840
1218.50,90.812
1219.00,90.828
1219.50,90.847
1220.00,90.850
1220.50,90.877
1221.00,90.860
1221.50,90.863
1222.00,90.879
1222.50,90.879
1223.00,90.894
1223.50,90.892
1224.00,90.876
1224.50,90.881
1225.00,90.881
1225.50,90.878
1226.00,90.891
1226.50,90.882
1227.00,90.873
1227.50,90.868
1228.00,90.877
1228.50,90.880
1229.00,90.904
1229.50,90.868
1230.00,90.875
1230.50,90.864
1231.00,90.873
1231.50,90.867
1232.00,90.856
1232.50,90.846
1233.00,90.838
1233.50,90.856
1234.00,90.819
1234.50,90.821
1235.00,90.857
1235.50,90.853
1236.00,90.833
1236.50,90.861
1237.00,90.880
1237.50,90.866
1238.00,90.855
1238.50,90.861
1239.00,90.856
1239.50,90.894
1240.00,90.874
1240.50,90.869
1241.00,90.869
1241.50,90.885
1242.00,90.885
1242.50,90.867
1243.00,90.892
1243.50,90.869
1244.00,90.900
1244.50,90.906
1245.00,90.910
1245.50,90.933
1246.00,90.887
1246.50,90.912
1247.00,90.897
1247.50,90.911
1248.00,90.928
1248.50,90.923
1249.00,90.925
1249.50,90.909
1250.00,90.924
1250.50,90.920
1251.00,90.923
1251.50,90.928
1252.00,90.946
1252.50,90.960
1253.00,90.920
1253.50,90.930
1254.00,90.947
1254.50,90.954
1255.00,90.933
1255.50,90.953
1256.00,90.947
1256.50,90.935
1257.00,90.941
1257.50,90.924
1258.00,90.948
1258.50,90.940
1259.00,90.914
1259.50,90.933
1260.00,90.926
1260.50,90.927
1261.00,90.936
1261.50,90.979
1262.00,90.918
1262.50,90.947
1263.00,90.922
1263.50,90.923
1264.00,90.941
1264.50,90.920
1265.00,90.890
1265.50,90.933
1266.00,90.896
1266.50,90.949
1267.00,90.952
1267.50,90.944
1268.00,90.954
1268.50,90.954
1269.00,90.916
1269.50,90.945
1270.00,90.951
1270.50,90.975
1271.00,90.950
1271.50,90.955
1272.00,90.966
1272.50,90.989
1273.00,91.000
1273.50,90.988
1274.00,90.991
1274.50,90.980
1275.00,90.968
1275.50,90.955
1276.00,91.000
1276.50,90.983
1277.00,91.026
1277.50,91.021
1278.00,91.005
1278.50,91.050
1279.00,91.005
1279.50,91.008
1280.00,91.011
1280.50,91.018
1281.00,91.015
1281.50,91.010
1282.00,91.004
1282.50,91.001
1283.00,91.016
1283.50,91.002
1284.00,91.024
1284.50,91.002
1285.00,91.003
1285.50,91.008
1286.00,90.995
1286.50,90.999
1287.00,91.004
1287.50,90.977
1288.00,91.019
1288.50,91.024
1289.00,91.018
1289.50,90.990
1290.00,90.996
1290.50,91.000
1291.00,90.995
1291.50,90.988
1292.00,90.985
1292.50,91.028
1293.00,91.014
1293.50,90.995
1294.00,91.008
1294.50,91.001
1295.00,90.993
1295.50,91.005
1296.00,90.972
1296.50,91.007
1297.00,91.004
1297.50,91.017
1298.00,91.035
1298.50,91.039
1299.00,91.047
1299.50,91.028
1300.00,91.058
1300.50,91.027
1301.00,91.031
1301.50,91.049
1302.00,91.022
1302.50,91.074
1303.00,91.067
1303.50,91.097
1304.00,91.085
1304.50,91.104
1305.00,91.089
1305.50,91.083
1306.00,91.101
1306.50,91.066
1307.00,91.079
1307.50,91.076
1308.00,91.080
1308.50,91.096
1309.00,91.116
1309.50,91.092
1310.00,91.080
1310.50,91.107
1311.00,91.103
1311.50,91.099
1312.00,91.100
1312.50,91.099
1313.00,91.117
1313.50,91.094
1314.00,91.103
1314.50,91.093
1315.00,91.104
1315.50,91.098
1316.00,91.099
1316.50,91.125
1317.00,91.103
1317.50,91.096
1318.00,91.120
1318.50,91.131
1319.00,91.097
1319.50,91.114
1320.00,91.074
1320.50,90.898
1321.00,90.947
1321.50,90.939
1322.00,90.930
1322.50,90.930
1323.00,90.918
1323.50,90.971
1324.00,90.948
1324.50,90.919
1325.00,90.916
1325.50,90.957
1326.00,90.957
1326.50,90.944
1327.00,90.967
1327.50,90.966
1328.00,90.968
1328.50,90.972
1329.00,90.966
1329.50,91.022
1330.00,90.997
1330.50,91.002
1331.00,90.984
1331.50,91.031
1332.00,91.025
1332.50,91.002
1333.00,91.025
1333.50,91.004
1334.00,91.040
1334.50,91.016
1335.00,91.062
1335.50,91.026
1336.00,91.033
1336.50,91.080
1337.00,91.073
1337.50,91.091
1338.00,91.069
1338.50,91.090
1339.00,91.091
1339.50,91.078
1340.00,91.052
1340.50,91.103
1341.00,91.087
1341.50,91.085
1342.00,91.117
1342.50,91.110
1343.00,91.131
1343.50,91.098
1344.00,91.127
1344.50,91.095
1345.00,91.169
1345.50,91.085
1346.00,91.124
1346.50,91.094
1347.00,91.151
1347.50,91.049
1348.00,91.126
1348.50,91.110
1349.00,91.079
1349.50,91.151
1350.00,90.968
1350.50,91.085
1351.00,91.070
1351.50,90.979
1352.00,91.023
1352.50,91.164
1353.00,91.077
1353.50,91.018
1354.00,91.129
1354.50,90.886
1355.00,91.271
1355.50,90.823
1356.00,90.899
1356.50,91.396
1357.00,91.039
1357.50,90.976
1358.00,91.206
1358.50,90.883
1359.00,91.258
1359.50,90.905
1360.00,90.883
1360.50,90.987
1361.00,91.310
1361.50,90.948
1362.00,90.824
1362.50,91.066
1363.00,91.147
1363.50,90.961
1364.00,92.049
1364.50,90.153
1365.00,91.222
1365.50,91.074
1366.00,91.119
1366.50,90.882
1367.00,91.576
1367.50,90.386
1368.00,91.710
1368.50,90.837
1369.00,91.256
1369.50,91.075
1370.00,90.935
1370.50,91.371
1371.00,91.019
1371.50,91.564
1372.00,90.968
1372.50,91.279
1373.00,91.176
1373.50,91.254
1374.00,91.175
1374.50,91.165
1375.00,91.259
1375.50,91.228
1376.00,91.009
1376.50,91.367
1377.00,91.547
1377.50,91.100
1378.00,91.412
1378.50,90.845
1379.00,91.176
1379.50,90.939
1380.00,91.546
1380.50,90.736
1381.00,91.021
1381.50,90.908
1382.00,91.567
1382.50,90.402
1383.00,91.094
1383.50,91.461
1384.00,90.870
1384.50,91.586
1385.00,90.825
1385.50,91.181
1386.00,91.308
1386.50,91.122
1387.00,91.036
1387.50,91.783
1388.00,90.942
1388.50,91.196
1389.00,91.148
1389.50,91.316
1390.00,91.052
1390.50,91.181
1391.00,91.108
1391.50,90.908
1392.00,92.509
1392.50,90.693
1393.00,91.286
1393.50,91.174
1394.00,90.694
1394.50,91.655
1395.00,91.078
1395.50,90.354
1396.00,92.384
1396.50,91.359
1397.00,91.257
1397.50,91.176
1398.00,91.227
1398.50,90.957
1399.00,91.614
1399.50,90.970
1400.00,91.026
1400.50,91.058
1401.00,91.369
1401.50,90.929
1402.00,91.133
1402.50,91.292
1403.00,91.098
1403.50,91.174
1404.00,90.738
1404.50,92.138
1405.00,90.497
1405.50,91.155
1406.00,91.061
1406.50,91.344
1407.00,91.219
1407.50,90.983
1408.00,91.151
1408.50,91.112
1409.00,91.456
1409.50,91.025
1410.00,91.108
1410.50,91.213
1411.00,91.186
1411.50,91.222
1412.00,91.317
1412.50,91.080
1413.00,91.163
1413.50,91.393
1414.00,91.224
1414.50,90.995
1415.00,91.213
1415.50,91.178
1416.00,91.165
1416.50,91.125
1417.00,91.285
1417.50,91.075
1418.00,91.065
1418.50,91.373
1419.00,91.102
1419.50,91.165
1420.00,91.163
1420.50,91.174
1421.00,91.227
1421.50,91.149
1422.00,91.210
1422.50,91.192
1423.00,91.139
1423.50,91.282
1424.00,91.078
1424.50,91.177
1425.00,91.200
1425.50,91.174
1426.00,91.152
1426.50,91.208
1427.00,91.214
1427.50,91.242
1428.00,91.156
1428.50,91.245
1429.00,91.171
1429.50,91.248
1430.00,91.158
1430.50,91.263
1431.00,91.224
1431.50,91.128
1432.00,91.365
1432.50,91.133
1433.00,91.241
1433.50,91.209
1434.00,91.188
1434.50,91.207
1435.00,91.236
1435.50,91.334
1436.00,91.214
1436.50,91.259
1437.00,91.324
1437.50,91.285
1438.00,91.217
1438.50,91.268
1439.00,91.400
1439.50,91.248
1440.00,91.327
1440.50,91.237
1441.00,91.459
1441.50,91.234
1442.00,91.307
1442.50,91.427
1443.00,91.292
1443.50,91.326
1444.00,91.365
1444.50,91.236
1445.00,91.452
1445.50,91.383
1446.00,91.261
1446.50,91.393
1447.00,91.317
1447.50,91.353
1448.00,91.378
1448.50,91.310
1449.00,91.319
1449.50,91.332
1450.00,91.409
1450.50,91.378
1451.00,91.340
1451.50,91.314
1452.00,91.428
1452.50,91.367
1453.00,91.366
1453.50,91.368
1454.00,91.396
1454.50,91.352
1455.00,91.477
1455.50,91.289
1456.00,91.401
1456.50,91.352
1457.00,91.370
1457.50,91.367
1458.00,91.350
1458.50,91.411
1459.00,91.387
1459.50,91.368
1460.00,91.428
1460.50,91.311
1461.00,91.387
1461.50,91.363
1462.00,91.361
1462.50,91.355
1463.00,91.437
1463.50,91.305
1464.00,91.406
1464.50,91.354
1465.00,91.480
1465.50,91.329
1466.00,91.436
1466.50,91.353
1467.00,91.393
1467.50,91.413
1468.00,91.394
1468.50,91.402
1469.00,91.344
1469.50,91.572
1470.00,91.331
1470.50,91.528
1471.00,91.448
1471.50,91.386
1472.00,91.479
1472.50,91.430
1473.00,91.411
1473.50,91.482
1474.00,91.449
1474.50,91.502
1475.00,91.464
1475.50,91.529
1476.00,91.533
1476.50,91.504
1477.00,91.554
1477.50,91.553
1478.00,91.522
1478.50,91.545
1479.00,91.543
1479.50,91.549
1480.00,91.559
1480.50,91.557
1481.00,91.523
1481.50,91.578
1482.00,91.553
1482.50,91.534
1483.00,91.551
1483.50,91.563
1484.00,91.607
1484.50,91.615
1485.00,91.584
1485.50,91.586
1486.00,91.592
1486.50,91.619
1487.00,91.609
1487.50,91.587
1488.00,91.599
1488.50,91.585
1489.00,91.583
1489.50,91.631
1490.00,91.576
1490.50,91.615
1491.00,91.622
1491.50,91.608
1492.00,91.615
1492.50,91.626
1493.00,91.625
1493.50,91.589
1494.00,91.623
1494.50,91.625
1495.00,91.621
1495.50,91.604
1496.00,91.594
1496.50,91.585
1497.00,91.590
1497.50,91.585
1498.00,91.609
1498.50,91.602
1499.00,91.579
1499.50,91.572
1500.00,91.626
1500.50,91.555
1501.00,91.574
1501.50,91.613
1502.00,91.630
1502.50,91.610
1503.00,91.644
1503.50,91.620
1504.00,91.602
1504.50,91.634
1505.00,91.621
1505.50,91.624
1506.00,91.648
1506.50,91.629
1507.00,91.614
1507.50,91.651
1508.00,91.639
1508.50,91.646
1509.00,91.659
1509.50,91.689
1510.00,91.639
1510.50,91.677
1511.00,91.658
1511.50,91.656
1512.00,91.678
1512.50,91.686
1513.00,91.668
1513.50,91.697
1514.00,91.718
1514.50,91.662
1515.00,91.731
1515.50,91.706
1516.00,91.685
1516.50,91.763
1517.00,91.744
1517.50,91.690
1518.00,91.712
1518.50,91.733
1519.00,91.686
1519.50,91.727
1520.00,91.738
1520.50,91.708
1521.00,91.710
1521.50,91.752
1522.00,91.720
1522.50,91.767
1523.00,91.750
1523.50,91.693
1524.00,91.735
1524.50,91.793
1525.00,91.739
1525.50,91.770
1526.00,91.727
1526.50,91.722
1527.00,91.736
1527.50,91.748
1528.00,91.712
1528.50,91.707
1529.00,91.717
1529.50,91.737
1530.00,91.713
1530.50,91.704
1531.00,91.738
1531.50,91.696
1532.00,91.743
1532.50,91.699
1533.00,91.720
1533.50,91.723
1534.00,91.674
1534.50,91.712
1535.00,91.705
1535.50,91.708
1536.00,91.716
1536.50,91.704
1537.00,91.708
1537.50,91.707
1538.00,91.709
1538.50,91.725
1539.00,91.689
1539.50,91.743
1540.00,91.668
1540.50,91.678
1541.00,91.696
1541.50,91.670
1542.00,91.701
1542.50,91.679
1543.00,91.668
1543.50,91.663
1544.00,91.703
1544.50,91.669
1545.00,91.638
1545.50,91.692
1546.00,91.691
1546.50,91.621
1547.00,91.708
1547.50,91.660
1548.00,91.705
1548.50,91.715
1549.00,91.689
1549.50,91.647
1550.00,91.702
1550.50,91.687
1551.00,91.695
1551.50,91.728
1552.00,91.698
1552.50,91.733
1553.00,91.770
1553.50,91.720
1554.00,91.670
1554.50,91.675
1555.00,91.712
1555.50,91.701
1556.00,91.709
1556.50,91.708
1557.00,91.728
1557.50,91.757
1558.00,91.724
1558.50,91.763
1559.00,91.722
1559.50,91.742
1560.00,91.733
1560.50,91.747
1561.00,91.720
1561.50,91.741
1562.00,91.742
1562.50,91.728
1563.00,91.718
1563.50,91.741
1564.00,91.766
1564.50,91.739
1565.00,91.785
1565.50,91.732
1566.00,91.774
1566.50,91.777
1567.00,91.739
1567.50,91.762
1568.00,91.784
1568.50,91.722
1569.00,91.752
1569.50,91.749
1570.00,91.754
1570.50,91.783
1571.00,91.755
1571.50,91.745
1572.00,91.822
1572.50,91.730
1573.00,91.729
1573.50,91.734
1574.00,91.720
1574.50,91.739
1575.00,91.755
1575.50,91.758
1576.00,91.687
1576.50,91.737
1577.00,91.746
1577.50,91.741
1578.00,91.712
1578.50,91.705
1579.00,91.742
1579.50,91.731
1580.00,91.716
1580.50,91.728
1581.00,91.715
1581.50,91.718
1582.00,91.702
1582.50,91.744
1583.00,91.733
1583.50,91.720
1584.00,91.761
1584.50,91.737
1585.00,91.687
1585.50,91.738
1586.00,91.696
1586.50,91.709
1587.00,91.715
1587.50,91.671
1588.00,91.766
1588.50,91.744
1589.00,91.729
1589.50,91.714
1590.00,91.724
1590.50,91.687
1591.00,91.715
1591.50,91.717
1592.00,91.694
1592.50,91.704
1593.00,91.723
1593.50,91.785
1594.00,91.704
1594.50,91.792
1595.00,91.739
1595.50,91.730
1596.00,91.786
1596.50,91.740
1597.00,91.725
1597.50,91.762
1598.00,91.722
1598.50,91.754
1599.00,91.744
1599.50,91.751
1600.00,91.751
