"sample_i - RawData"
"Wavelength nm.","T%"
200.00,0.003
200.50,-0.005
201.00,-0.021
201.50,-0.002
202.00,-0.069
202.50,0.085
203.00,0.020
203.50,-0.057
204.00,0.076
204.50,0.004
205.00,0.077
205.50,-0.016
206.00,0.024
206.50,0.072
207.00,0.061
207.50,-0.088
208.00,-0.017
208.50,0.035
209.00,0.064
209.50,-0.027
210.00,0.031
210.50,0.012
211.00,0.018
211.50,-0.029
212.00,0.024
212.50,0.024
213.00,0.028
213.50,0.012
214.00,-0.009
214.50,0.035
215.00,0.014
215.50,-0.000
216.00,-0.003
216.50,0.006
217.00,0.030
217.50,0.001
218.00,0.008
218.50,0.003
219.00,0.012
219.50,-0.011
220.00,0.006
220.50,0.019
221.00,0.005
221.50,0.028
222.00,0.019
222.50,-0.022
223.00,-0.009
223.50,-0.026
224.00,0.016
224.50,-0.019
225.00,0.020
225.50,-0.009
226.00,-0.010
226.50,-0.006
227.00,0.019
227.50,-0.003
228.00,0.010
228.50,-0.007
229.00,-0.018
229.50,0.003
230.00,0.005
230.50,-0.002
231.00,0.008
231.50,-0.008
232.00,-0.001
232.50,0.001
233.00,0.007
233.50,0.006
234.00,0.018
234.50,0.005
235.00,-0.013
235.50,0.001
236.00,-0.002
236.50,-0.000
237.00,-0.001
237.50,0.011
238.00,0.007
238.50,-0.002
239.00,-0.006
239.50,-0.002
240.00,0.003
240.50,0.000
241.00,-0.013
241.50,0.000
242.00,0.006
242.50,0.004
243.00,0.000
243.50,0.001
244.00,0.010
244.50,-0.003
245.00,0.006
245.50,-0.002
246.00,-0.003
246.50,-0.001
247.00,-0.008
247.50,0.008
248.00,-0.002
248.50,0.011
249.00,-0.007
249.50,0.010
250.00,0.003
250.50,-0.004
251.00,0.007
251.50,0.009
252.00,0.001
252.50,0.012
253.00,0.003
253.50,0.003
254.00,-0.004
254.50,0.004
255.00,-0.004
255.50,-0.007
256.00,0.001
256.50,0.006
257.00,0.006
257.50,0.009
258.00,-0.004
258.50,0.002
259.00,-0.002
259.50,-0.002
260.00,0.005
260.50,-0.004
261.00,-0.003
261.50,-0.011
262.00,-0.009
262.50,0.005
263.00,0.004
263.50,-0.000
264.00,0.005
264.50,-0.003
265.00,-0.011
265.50,-0.001
266.00,0.002
266.50,-0.005
267.00,0.009
267.50,0.001
268.00,-0.004
268.50,-0.001
269.00,0.004
269.50,-0.002
270.00,-0.005
270.50,0.002
271.00,-0.003
271.50,-0.000
272.00,-0.005
272.50,0.002
273.00,-0.007
273.50,0.002
274.00,-0.000
274.50,-0.007
275.00,0.004
275.50,0.001
276.00,-0.002
276.50,-0.002
277.00,0.009
277.50,-0.007
278.00,-0.007
278.50,0.001
279.00,-0.010
279.50,-0.002
280.00,0.005
280.50,0.001
281.00,-0.006
281.50,0.009
282.00,-0.000
282.50,-0.008
283.00,0.011
283.50,-0.011
284.00,-0.006
284.50,0.002
285.00,0.000
285.50,0.004
286.00,0.000
286.50,-0.002
287.00,0.007
287.50,-0.000
288.00,0.000
288.50,-0.004
289.00,0.005
289.50,0.011
290.00,0.008
290.50,0.012
291.00,-0.001
291.50,-0.011
292.00,0.006
292.50,0.002
293.00,-0.003
293.50,0.009
294.00,0.006
294.50,-0.005
295.00,-0.007
295.50,0.002
296.00,0.003
296.50,-0.009
297.00,0.002
297.50,0.007
298.00,0.007
298.50,0.014
299.00,0.009
299.50,-0.005
300.00,0.001
300.50,-0.006
301.00,0.005
301.50,0.014
302.00,-0.000
302.50,-0.006
303.00,0.017
303.50,0.011
304.00,0.004
304.50,0.002
305.00,-0.012
305.50,0.003
306.00,0.010
306.50,-0.003
307.00,-0.007
307.50,-0.007
308.00,0.004
308.50,-0.005
309.00,-0.002
309.50,-0.002
310.00,-0.005
310.50,-0.001
311.00,0.003
311.50,-0.003
312.00,0.009
312.50,0.016
313.00,0.020
313.50,0.005
314.00,0.013
314.50,0.011
315.00,0.040
315.50,0.049
316.00,0.032
316.50,0.075
317.00,0.103
317.50,0.101
318.00,0.158
318.50,0.144
319.00,0.223
319.50,0.286
320.00,0.335
320.50,0.433
321.00,0.502
321.50,0.613
322.00,0.746
322.50,0.912
323.00,1.102
323.50,1.314
324.00,1.521
324.50,1.816
325.00,2.079
325.50,2.388
326.00,2.820
326.50,3.266
327.00,3.701
327.50,4.160
328.00,4.646
328.50,5.199
329.00,5.844
329.50,6.478
330.00,7.177
330.50,8.038
331.00,8.807
331.50,9.438
332.00,10.279
332.50,11.218
333.00,12.247
333.50,13.156
334.00,14.207
334.50,15.264
335.00,16.342
335.50,17.080
336.00,18.228
336.50,19.451
337.00,20.598
337.50,21.822
338.00,23.066
338.50,24.007
339.00,24.996
339.50,26.227
340.00,27.591
340.50,29.851
341.00,30.250
341.50,31.589
342.00,32.716
342.50,34.415
343.00,36.163
343.50,37.070
344.00,37.163
344.50,38.248
345.00,40.198
345.50,41.662
346.00,41.883
346.50,43.135
347.00,43.764
347.50,44.488
348.00,46.218
348.50,47.461
349.00,48.588
349.50,48.315
350.00,49.979
350.50,50.886
351.00,51.446
351.50,52.693
352.00,53.350
352.50,53.935
353.00,55.132
353.50,55.595
354.00,56.344
354.50,56.988
355.00,57.246
355.50,59.395
356.00,59.082
356.50,59.495
357.00,60.168
357.50,60.418
358.00,61.730
358.50,62.653
359.00,62.696
359.50,63.446
360.00,63.305
360.50,64.451
361.00,64.591
361.50,65.353
362.00,65.696
362.50,65.931
363.00,66.743
363.50,66.669
364.00,67.550
364.50,67.120
365.00,67.472
365.50,68.225
366.00,68.721
366.50,69.107
367.00,69.052
367.50,68.864
368.00,69.408
368.50,69.618
369.00,69.100
369.50,69.186
370.00,69.621
370.50,69.614
371.00,69.433
371.50,69.720
372.00,70.200
372.50,69.153
373.00,69.212
373.50,69.046
374.00,69.028
374.50,68.702
375.00,68.754
375.50,68.091
376.00,67.933
376.50,67.223
377.00,67.419
377.50,67.060
378.00,66.511
378.50,66.482
379.00,66.056
379.50,66.164
380.00,66.148
380.50,66.178
381.00,65.997
381.50,66.009
382.00,65.831
382.50,65.881
383.00,66.074
383.50,66.337
384.00,66.242
384.50,66.426
385.00,66.660
385.50,66.305
386.00,66.610
386.50,66.550
387.00,66.892
387.50,66.738
388.00,66.553
388.50,66.578
389.00,66.373
389.50,66.197
390.00,66.032
390.50,65.854
391.00,65.345
391.50,65.268
392.00,64.933
392.50,64.773
393.00,64.165
393.50,64.054
394.00,63.641
394.50,63.336
395.00,62.902
395.50,61.960
396.00,61.485
396.50,61.159
397.00,60.194
397.50,59.595
398.00,59.344
398.50,58.491
399.00,57.964
399.50,57.111
400.00,56.405
400.50,55.852
401.00,54.826
401.50,54.204
402.00,53.553
402.50,52.538
403.00,51.874
403.50,51.184
404.00,50.217
404.50,49.384
405.00,48.481
405.50,47.385
406.00,46.800
406.50,45.962
407.00,45.150
407.50,44.190
408.00,43.402
408.50,42.481
409.00,41.695
409.50,40.888
410.00,39.889
410.50,39.111
411.00,38.378
411.50,37.365
412.00,36.680
412.50,35.811
413.00,34.972
413.50,34.216
414.00,33.524
414.50,32.595
415.00,31.982
415.50,31.229
416.00,30.446
416.50,29.826
417.00,29.164
417.50,28.471
418.00,27.834
418.50,27.229
419.00,26.589
419.50,25.968
420.00,25.338
420.50,24.819
421.00,24.266
421.50,23.751
422.00,23.184
422.50,22.649
423.00,22.231
423.50,21.714
424.00,21.287
424.50,20.771
425.00,20.348
425.50,19.953
426.00,19.500
426.50,19.142
427.00,18.773
427.50,18.376
428.00,18.087
428.50,17.699
429.00,17.301
429.50,17.037
430.00,16.706
430.50,16.397
431.00,16.140
431.50,15.801
432.00,15.548
432.50,15.288
433.00,15.054
433.50,14.844
434.00,14.537
434.50,14.333
435.00,14.131
435.50,13.955
436.00,13.694
436.50,13.556
437.00,13.286
437.50,13.209
438.00,13.008
438.50,12.882
439.00,12.707
439.50,12.554
440.00,12.446
440.50,12.329
441.00,12.165
441.50,12.072
442.00,11.986
442.50,11.877
443.00,11.754
443.50,11.718
444.00,11.561
444.50,11.437
445.00,11.457
445.50,11.416
446.00,11.339
446.50,11.256
447.00,11.260
447.50,11.152
448.00,11.137
448.50,11.064
449.00,11.080
449.50,11.035
450.00,11.006
450.50,10.949
451.00,10.987
451.50,10.961
452.00,10.922
452.50,10.957
453.00,10.949
453.50,10.935
454.00,10.948
454.50,10.941
455.00,10.987
455.50,10.982
456.00,11.033
456.50,11.011
457.00,11.030
457.50,11.035
458.00,11.105
458.50,11.108
459.00,11.142
459.50,11.214
460.00,11.238
460.50,11.304
461.00,11.360
461.50,11.385
462.00,11.410
462.50,11.496
463.00,11.536
463.50,11.575
464.00,11.623
464.50,11.730
465.00,11.800
465.50,11.787
466.00,11.857
466.50,11.968
467.00,12.029
467.50,12.062
468.00,12.148
468.50,12.218
469.00,12.321
469.50,12.357
470.00,12.423
470.50,12.525
471.00,12.579
471.50,12.648
472.00,12.730
472.50,12.778
473.00,12.869
473.50,12.949
474.00,13.021
474.50,13.083
475.00,13.216
475.50,13.307
476.00,13.330
476.50,13.446
477.00,13.542
477.50,13.646
478.00,13.745
478.50,13.781
479.00,13.870
479.50,13.928
480.00,14.089
480.50,14.134
481.00,14.225
481.50,14.307
482.00,14.396
482.50,14.528
483.00,14.640
483.50,14.679
484.00,14.778
484.50,14.880
485.00,14.965
485.50,15.102
486.00,15.168
486.50,15.321
487.00,15.375
487.50,15.504
488.00,15.565
488.50,15.657
489.00,15.779
489.50,15.823
490.00,15.961
490.50,16.049
491.00,16.184
491.50,16.295
492.00,16.354
492.50,16.446
493.00,16.561
493.50,16.658
494.00,16.729
494.50,16.827
495.00,16.895
495.50,17.128
496.00,17.179
496.50,17.255
497.00,17.385
497.50,17.421
498.00,17.574
498.50,17.633
499.00,17.750
499.50,17.849
500.00,17.955
500.50,17.998
501.00,18.127
501.50,18.183
502.00,18.288
502.50,18.369
503.00,18.454
503.50,18.506
504.00,18.554
504.50,18.688
505.00,18.700
505.50,18.772
506.00,18.821
506.50,18.881
507.00,19.003
507.50,19.016
508.00,19.082
508.50,19.127
509.00,19.204
509.50,19.255
510.00,19.323
510.50,19.332
511.00,19.343
511.50,19.369
512.00,19.458
512.50,19.504
513.00,19.602
513.50,19.561
514.00,19.586
514.50,19.709
515.00,19.728
515.50,19.754
516.00,19.832
516.50,19.799
517.00,19.867
517.50,19.934
518.00,19.842
518.50,19.948
519.00,19.982
519.50,20.015
520.00,20.043
520.50,20.046
521.00,20.072
521.50,20.082
522.00,20.117
522.50,20.144
523.00,20.142
523.50,20.109
524.00,20.175
524.50,20.194
525.00,20.200
525.50,20.259
526.00,20.266
526.50,20.292
527.00,20.252
527.50,20.275
528.00,20.319
528.50,20.313
529.00,20.369
529.50,20.369
530.00,20.440
530.50,20.363
531.00,20.384
531.50,20.410
532.00,20.441
532.50,20.507
533.00,20.561
533.50,20.546
534.00,20.582
534.50,20.668
535.00,20.713
535.50,20.786
536.00,20.855
536.50,20.890
537.00,20.938
537.50,21.001
538.00,21.077
538.50,21.179
539.00,21.212
539.50,21.350
540.00,21.374
540.50,21.422
541.00,21.455
541.50,21.645
542.00,21.696
542.50,21.768
543.00,21.822
543.50,21.957
544.00,21.989
544.50,22.106
545.00,22.211
545.50,22.297
546.00,22.405
546.50,22.473
547.00,22.562
547.50,22.662
548.00,22.780
548.50,22.895
549.00,22.990
549.50,23.043
550.00,23.125
550.50,23.183
551.00,23.314
551.50,23.317
552.00,23.502
552.50,23.567
553.00,23.590
553.50,23.686
554.00,23.715
554.50,23.859
555.00,23.871
555.50,23.995
556.00,23.933
556.50,24.013
557.00,24.027
557.50,24.068
558.00,24.121
558.50,24.216
559.00,24.172
559.50,24.256
560.00,24.206
560.50,24.231
561.00,24.284
561.50,24.212
562.00,24.174
562.50,24.175
563.00,24.148
563.50,24.115
564.00,24.053
564.50,24.001
565.00,24.025
565.50,23.990
566.00,23.894
566.50,23.869
567.00,23.848
567.50,23.802
568.00,23.670
568.50,23.627
569.00,23.551
569.50,23.470
570.00,23.381
570.50,23.212
571.00,23.168
571.50,23.112
572.00,23.037
572.50,22.878
573.00,22.804
573.50,22.629
574.00,22.534
574.50,22.376
575.00,22.292
575.50,22.186
576.00,22.022
576.50,21.935
577.00,21.765
577.50,21.549
578.00,21.439
578.50,21.323
579.00,21.148
579.50,21.003
580.00,20.884
580.50,20.683
581.00,20.531
581.50,20.425
582.00,20.251
582.50,20.062
583.00,19.958
583.50,19.808
584.00,19.607
584.50,19.458
585.00,19.352
585.50,19.221
586.00,19.056
586.50,18.937
587.00,18.770
587.50,18.702
588.00,18.559
588.50,18.428
589.00,18.363
589.50,18.263
590.00,18.109
590.50,18.074
591.00,17.988
591.50,17.938
592.00,17.864
592.50,17.791
593.00,17.699
593.50,17.666
594.00,17.637
594.50,17.588
595.00,17.482
595.50,17.506
596.00,17.400
596.50,17.397
597.00,17.409
597.50,17.333
598.00,17.296
598.50,17.293
599.00,17.250
599.50,17.192
600.00,17.189
600.50,17.140
601.00,17.147
601.50,17.062
602.00,17.052
602.50,16.967
603.00,17.017
603.50,16.933
604.00,16.891
604.50,16.857
605.00,16.836
605.50,16.817
606.00,16.771
606.50,16.717
607.00,16.651
607.50,16.637
608.00,16.569
608.50,16.542
609.00,16.499
609.50,16.434
610.00,16.392
610.50,16.362
611.00,16.321
611.50,16.294
612.00,16.243
612.50,16.194
613.00,16.148
613.50,16.145
614.00,16.055
614.50,15.988
615.00,15.965
615.50,15.889
616.00,15.883
616.50,15.842
617.00,15.855
617.50,15.776
618.00,15.718
618.50,15.672
619.00,15.681
619.50,15.591
620.00,15.558
620.50,15.533
621.00,15.461
621.50,15.461
622.00,15.395
622.50,15.369
623.00,15.364
623.50,15.300
624.00,15.279
624.50,15.245
625.00,15.204
625.50,15.156
626.00,15.135
626.50,15.110
627.00,15.090
627.50,15.043
628.00,15.032
628.50,14.960
629.00,15.008
629.50,14.895
630.00,14.915
630.50,14.888
631.00,14.860
631.50,14.896
632.00,14.793
632.50,14.864
633.00,14.750
633.50,14.830
634.00,14.765
634.50,14.806
635.00,14.777
635.50,14.774
636.00,14.842
636.50,14.856
637.00,14.835
637.50,14.884
638.00,14.892
638.50,14.869
639.00,14.928
639.50,14.978
640.00,14.977
640.50,15.064
641.00,15.122
641.50,15.093
642.00,15.118
642.50,15.169
643.00,15.280
643.50,15.246
644.00,15.284
644.50,15.353
645.00,15.458
645.50,15.512
646.00,15.537
646.50,15.646
647.00,15.668
647.50,15.758
648.00,15.822
648.50,15.912
649.00,15.958
649.50,16.064
650.00,16.171
650.50,16.194
651.00,16.253
651.50,16.432
652.00,16.524
652.50,16.580
653.00,16.679
653.50,16.856
654.00,16.986
654.50,17.107
655.00,17.287
655.50,17.445
656.00,17.534
656.50,17.622
657.00,17.809
657.50,18.065
658.00,18.211
658.50,18.351
659.00,18.634
659.50,18.783
660.00,18.956
660.50,19.131
661.00,19.419
661.50,19.552
662.00,19.839
662.50,20.079
663.00,20.292
663.50,20.531
664.00,20.742
664.50,21.030
665.00,21.308
665.50,21.593
666.00,21.856
666.50,22.158
667.00,22.478
667.50,22.817
668.00,23.145
668.50,23.470
669.00,23.786
669.50,24.100
670.00,24.553
670.50,24.889
671.00,25.310
671.50,25.674
672.00,26.129
672.50,26.482
673.00,26.905
673.50,27.353
674.00,27.737
674.50,28.310
675.00,28.785
675.50,29.244
676.00,29.735
676.50,30.185
677.00,30.623
677.50,31.150
678.00,31.595
678.50,32.064
679.00,32.509
679.50,32.767
680.00,33.239
680.50,33.685
681.00,34.097
681.50,34.506
682.00,34.819
682.50,35.252
683.00,35.643
683.50,36.091
684.00,36.452
684.50,36.894
685.00,37.193
685.50,37.690
686.00,38.077
686.50,38.539
687.00,38.941
687.50,39.393
688.00,39.832
688.50,40.219
689.00,40.603
689.50,41.000
690.00,41.519
690.50,41.944
691.00,42.359
691.50,42.858
692.00,43.007
692.50,43.613
693.00,43.993
693.50,44.502
694.00,44.783
694.50,45.217
695.00,45.725
695.50,46.038
696.00,46.478
696.50,46.901
697.00,47.132
697.50,47.627
698.00,47.965
698.50,48.257
699.00,48.578
699.50,49.111
700.00,49.530
700.50,49.721
701.00,50.123
701.50,50.542
702.00,51.005
702.50,51.311
703.00,51.477
703.50,51.923
704.00,52.079
704.50,52.600
705.00,52.798
705.50,53.143
706.00,53.503
706.50,53.783
707.00,54.131
707.50,54.317
708.00,54.464
708.50,54.952
709.00,55.166
709.50,55.480
710.00,55.679
710.50,55.699
711.00,56.149
711.50,56.258
712.00,56.604
712.50,56.928
713.00,57.054
713.50,57.443
714.00,57.500
714.50,57.633
715.00,57.983
715.50,58.283
716.00,58.356
716.50,58.733
717.00,58.877
717.50,59.064
718.00,59.338
718.50,59.519
719.00,59.501
719.50,59.855
720.00,60.019
720.50,60.187
721.00,60.362
721.50,60.590
722.00,60.860
722.50,60.916
723.00,61.018
723.50,61.205
724.00,61.230
724.50,61.713
725.00,61.891
725.50,62.108
726.00,62.328
726.50,62.230
727.00,62.381
727.50,62.622
728.00,62.834
728.50,62.922
729.00,63.197
729.50,63.183
730.00,63.470
730.50,63.495
731.00,63.783
731.50,64.121
732.00,64.261
732.50,64.298
733.00,64.482
733.50,64.448
734.00,64.890
734.50,64.789
735.00,65.098
735.50,65.312
736.00,65.365
736.50,65.454
737.00,65.712
737.50,65.864
738.00,65.888
738.50,65.970
739.00,66.431
739.50,66.542
740.00,66.469
740.50,66.668
741.00,66.666
741.50,66.717
742.00,66.836
742.50,66.671
743.00,67.064
743.50,67.089
744.00,67.345
744.50,67.281
745.00,67.274
745.50,67.644
746.00,67.813
746.50,67.572
747.00,67.680
747.50,67.588
748.00,67.988
748.50,68.260
749.00,68.018
749.50,68.205
750.00,68.411
750.50,68.053
751.00,68.430
751.50,68.418
752.00,68.591
752.50,68.554
753.00,68.413
753.50,68.355
754.00,68.280
754.50,68.220
755.00,68.300
755.50,68.407
756.00,68.578
756.50,68.442
757.00,68.722
757.50,68.721
758.00,68.500
758.50,68.839
759.00,68.457
759.50,68.367
760.00,68.189
760.50,68.419
761.00,68.621
761.50,68.577
762.00,68.704
762.50,68.376
763.00,68.390
763.50,68.658
764.00,68.353
764.50,68.260
765.00,68.488
765.50,68.319
766.00,68.476
766.50,68.582
767.00,68.340
767.50,68.379
768.00,68.284
768.50,68.504
769.00,68.127
769.50,68.216
770.00,67.953
770.50,68.105
771.00,68.305
771.50,67.960
772.00,68.160
772.50,68.408
773.00,67.871
773.50,68.271
774.00,68.033
774.50,68.348
775.00,68.361
775.50,68.633
776.00,68.642
776.50,68.535
777.00,67.937
777.50,68.142
778.00,68.310
778.50,68.375
779.00,68.247
779.50,68.476
780.00,68.341
780.50,68.487
781.00,68.552
781.50,68.590
782.00,68.580
782.50,68.656
783.00,68.424
783.50,68.880
784.00,68.441
784.50,68.453
785.00,68.281
785.50,68.602
786.00,68.750
786.50,68.618
787.00,68.761
787.50,68.846
788.00,68.930
788.50,68.491
789.00,68.792
789.50,68.565
790.00,68.235
790.50,68.819
791.00,68.532
791.50,68.439
792.00,68.873
792.50,68.692
793.00,68.642
793.50,68.503
794.00,68.454
794.50,68.536
795.00,68.556
795.50,68.518
796.00,68.471
796.50,68.382
797.00,68.286
797.50,68.462
798.00,68.530
798.50,68.288
799.00,68.319
799.50,68.488
800.00,67.998
800.50,68.355
801.00,68.361
801.50,68.357
802.00,68.387
802.50,68.335
803.00,68.438
803.50,68.153
804.00,68.305
804.50,68.317
805.00,67.688
805.50,67.969
806.00,67.637
806.50,67.909
807.00,68.011
807.50,67.705
808.00,67.969
808.50,67.683
809.00,67.224
809.50,67.362
810.00,67.486
810.50,67.664
811.00,67.469
811.50,67.846
812.00,67.439
812.50,67.688
813.00,67.741
813.50,67.037
814.00,66.980
814.50,67.503
815.00,67.410
815.50,67.471
816.00,67.562
816.50,66.784
817.00,67.014
817.50,66.966
818.00,66.822
818.50,67.364
819.00,66.678
819.50,67.127
820.00,66.828
820.50,67.057
821.00,66.160
821.50,66.977
822.00,66.365
822.50,66.802
823.00,67.064
823.50,66.527
824.00,66.511
824.50,66.633
825.00,66.852
825.50,66.430
826.00,66.495
826.50,66.366
827.00,66.254
827.50,66.370
828.00,66.586
828.50,66.093
829.00,66.185
829.50,66.509
830.00,66.396
830.50,66.001
831.00,65.973
831.50,65.801
832.00,65.977
832.50,65.966
833.00,66.278
833.50,65.734
834.00,65.945
834.50,65.236
835.00,65.696
835.50,66.412
836.00,65.528
836.50,65.675
837.00,65.368
837.50,65.310
838.00,65.653
838.50,65.849
839.00,65.936
839.50,65.559
840.00,65.246
840.50,65.673
841.00,65.169
841.50,65.399
842.00,65.073
842.50,65.319
843.00,65.426
843.50,65.095
844.00,65.424
844.50,64.966
845.00,64.943
845.50,65.284
846.00,65.654
846.50,65.264
847.00,64.819
847.50,66.000
848.00,64.800
848.50,64.946
849.00,65.220
849.50,64.629
850.00,64.825
850.50,64.966
851.00,64.351
851.50,65.050
852.00,65.021
852.50,64.968
853.00,65.210
853.50,64.949
854.00,64.617
854.50,64.272
855.00,65.096
855.50,64.557
856.00,65.074
856.50,64.369
857.00,64.785
857.50,64.097
858.00,64.112
858.50,63.625
859.00,64.105
859.50,64.154
860.00,64.636
860.50,64.408
861.00,64.396
861.50,64.539
862.00,63.967
862.50,63.809
863.00,64.477
863.50,64.247
864.00,64.408
864.50,64.140
865.00,64.092
865.50,63.309
866.00,63.772
866.50,64.378
867.00,63.476
867.50,63.827
868.00,64.185
868.50,63.570
869.00,63.691
869.50,63.649
870.00,63.974
870.50,64.593
871.00,63.688
871.50,63.978
872.00,63.656
872.50,64.003
873.00,64.210
873.50,63.753
874.00,63.579
874.50,63.236
875.00,64.533
875.50,63.086
876.00,64.661
876.50,64.672
877.00,62.513
877.50,63.318
878.00,63.111
878.50,62.453
879.00,62.854
879.50,62.893
880.00,63.026
880.50,63.083
881.00,62.841
881.50,62.413
882.00,63.246
882.50,63.156
883.00,62.541
883.50,61.909
884.00,62.853
884.50,62.324
885.00,62.797
885.50,64.229
886.00,63.643
886.50,62.508
887.00,63.230
887.50,62.059
888.00,63.752
888.50,63.213
889.00,63.658
889.50,62.466
890.00,61.681
890.50,63.624
891.00,64.867
891.50,61.902
892.00,62.026
892.50,62.602
893.00,62.845
893.50,63.702
894.00,64.272
894.50,63.478
895.00,61.702
895.50,63.664
896.00,62.535
896.50,63.654
897.00,63.287
897.50,61.932
898.00,61.754
898.50,60.503
899.00,64.670
899.50,64.477
900.00,66.957
900.50,63.645
901.00,63.525
901.50,63.532
902.00,63.616
902.50,63.529
903.00,63.416
903.50,63.560
904.00,63.569
904.50,63.431
905.00,63.566
905.50,63.456
906.00,63.279
906.50,63.460
907.00,63.384
907.50,63.416
908.00,63.317
908.50,63.447
909.00,63.313
909.50,63.215
910.00,63.340
910.50,63.309
911.00,63.395
911.50,63.338
912.00,63.066
912.50,63.229
913.00,63.260
913.50,63.088
914.00,63.150
914.50,63.172
915.00,63.139
915.50,63.051
916.00,63.106
916.50,62.975
917.00,62.950
917.50,63.077
918.00,63.002
918.50,62.948
919.00,62.987
919.50,62.982
920.00,62.986
920.50,62.992
921.00,62.887
921.50,62.865
922.00,62.812
922.50,62.833
923.00,62.771
923.50,62.813
924.00,62.804
924.50,62.771
925.00,62.800
925.50,62.698
926.00,62.700
926.50,62.721
927.00,62.664
927.50,62.696
928.00,62.615
928.50,62.733
929.00,62.583
929.50,62.609
930.00,62.663
930.50,62.574
931.00,62.538
931.50,62.496
932.00,62.598
932.50,62.455
933.00,62.474
933.50,62.441
934.00,62.493
934.50,62.478
935.00,62.336
935.50,62.443
936.00,62.375
936.50,62.339
937.00,62.406
937.50,62.439
938.00,62.397
938.50,62.321
939.00,62.275
939.50,62.335
940.00,62.286
940.50,62.267
941.00,62.308
941.50,62.279
942.00,62.232
942.50,62.235
943.00,62.173
943.50,62.212
944.00,62.200
944.50,62.183
945.00,62.090
945.50,62.099
946.00,62.132
946.50,62.051
947.00,62.089
947.50,62.039
948.00,62.045
948.50,62.079
949.00,62.006
949.50,62.005
950.00,61.979
950.50,61.985
951.00,61.981
951.50,61.940
952.00,61.916
952.50,61.892
953.00,61.899
953.50,61.961
954.00,61.855
954.50,61.837
955.00,61.831
955.50,61.818
956.00,61.824
956.50,61.814
957.00,61.801
957.50,61.796
958.00,61.734
958.50,61.743
959.00,61.713
959.50,61.739
960.00,61.705
960.50,61.654
961.00,61.657
961.50,61.651
962.00,61.668
962.50,61.570
963.00,61.661
963.50,61.557
964.00,61.585
964.50,61.534
965.00,61.552
965.50,61.592
966.00,61.533
966.50,61.533
967.00,61.488
967.50,61.489
968.00,61.462
968.50,61.484
969.00,61.460
969.50,61.472
970.00,61.429
970.50,61.471
971.00,61.410
971.50,61.404
972.00,61.346
972.50,61.282
973.00,61.351
973.50,61.326
974.00,61.328
974.50,61.259
975.00,61.257
975.50,61.235
976.00,61.256
976.50,61.242
977.00,61.215
977.50,61.207
978.00,61.151
978.50,61.162
979.00,61.138
979.50,61.117
980.00,61.122
980.50,61.081
981.00,61.094
981.50,61.138
982.00,61.106
982.50,61.070
983.00,61.018
983.50,61.008
984.00,61.013
984.50,61.017
985.00,60.955
985.50,60.926
986.00,60.945
986.50,60.955
987.00,60.930
987.50,60.879
988.00,60.874
988.50,60.876
989.00,60.813
989.50,60.822
990.00,60.824
990.50,60.778
991.00,60.769
991.50,60.746
992.00,60.759
992.50,60.737
993.00,60.716
993.50,60.710
994.00,60.683
994.50,60.659
995.00,60.616
995.50,60.623
996.00,60.634
996.50,60.573
997.00,60.562
997.50,60.566
998.00,60.518
998.50,60.531
999.00,60.473
999.50,60.487
1000.00,60.490
1000.50,60.460
1001.00,60.498
1001.50,60.423
1002.00,60.458
1002.50,60.426
1003.00,60.398
1003.50,60.381
1004.00,60.348
1004.50,60.342
1005.00,60.318
1005.50,60.294
1006.00,60.292
1006.50,60.251
1007.00,60.243
1007.50,60.242
1008.00,60.181
1008.50,60.232
1009.00,60.153
1009.50,60.134
1010.00,60.146
1010.50,60.116
1011.00,60.064
1011.50,60.062
1012.00,60.052
1012.50,60.025
1013.00,60.017
1013.50,59.989
1014.00,59.983
1014.50,59.952
1015.00,59.957
1015.50,59.917
1016.00,59.901
1016.50,59.877
1017.00,59.877
1017.50,59.870
1018.00,59.866
1018.50,59.851
1019.00,59.786
1019.50,59.826
1020.00,59.787
1020.50,59.758
1021.00,59.774
1021.50,59.748
1022.00,59.721
1022.50,59.699
1023.00,59.664
1023.50,59.638
1024.00,59.649
1024.50,59.617
1025.00,59.604
1025.50,59.557
1026.00,59.541
1026.50,59.553
1027.00,59.517
1027.50,59.505
1028.00,59.472
1028.50,59.458
1029.00,59.447
1029.50,59.438
1030.00,59.380
1030.50,59.426
1031.00,59.357
1031.50,59.363
1032.00,59.364
1032.50,59.320
1033.00,59.271
1033.50,59.279
1034.00,59.273
1034.50,59.257
1035.00,59.226
1035.50,59.223
1036.00,59.182
1036.50,59.192
1037.00,59.180
1037.50,59.148
1038.00,59.175
1038.50,59.126
1039.00,59.119
1039.50,59.099
1040.00,59.078
1040.50,59.046
1041.00,59.048
1041.50,59.051
1042.00,59.026
1042.50,58.964
1043.00,58.988
1043.50,58.941
1044.00,58.958
1044.50,58.910
1045.00,58.883
1045.50,58.900
1046.00,58.879
1046.50,58.866
1047.00,58.844
1047.50,58.819
1048.00,58.801
1048.50,58.771
1049.00,58.749
1049.50,58.750
1050.00,58.716
1050.50,58.718
1051.00,58.711
1051.50,58.690
1052.00,58.660
1052.50,58.678
1053.00,58.642
1053.50,58.623
1054.00,58.617
1054.50,58.572
1055.00,58.548
1055.50,58.594
1056.00,58.547
1056.50,58.524
1057.00,58.501
1057.50,58.477
1058.00,58.474
1058.50,58.450
1059.00,58.429
1059.50,58.471
1060.00,58.427
1060.50,58.393
1061.00,58.386
1061.50,58.386
1062.00,58.354
1062.50,58.372
1063.00,58.346
1063.50,58.330
1064.00,58.317
1064.50,58.291
1065.00,58.266
1065.50,58.265
1066.00,58.286
1066.50,58.214
1067.00,58.235
1067.50,58.202
1068.00,58.213
1068.50,58.193
1069.00,58.145
1069.50,58.160
1070.00,58.110
1070.50,58.143
1071.00,58.098
1071.50,58.077
1072.00,58.063
1072.50,58.064
1073.00,58.035
1073.50,58.034
1074.00,58.028
1074.50,58.011
1075.00,58.008
1075.50,57.998
1076.00,57.981
1076.50,57.966
1077.00,57.951
1077.50,57.941
1078.00,57.936
1078.50,57.938
1079.00,57.934
1079.50,57.898
1080.00,57.897
1080.50,57.904
1081.00,57.870
1081.50,57.867
1082.00,57.873
1082.50,57.841
1083.00,57.821
1083.50,57.828
1084.00,57.812
1084.50,57.807
1085.00,57.784
1085.50,57.804
1086.00,57.769
1086.50,57.753
1087.00,57.756
1087.50,57.719
1088.00,57.698
1088.50,57.710
1089.00,57.698
1089.50,57.698
1090.00,57.692
1090.50,57.684
1091.00,57.680
1091.50,57.644
1092.00,57.664
1092.50,57.617
1093.00,57.598
1093.50,57.624
1094.00,57.602
1094.50,57.612
1095.00,57.588
1095.50,57.604
1096.00,57.588
1096.50,57.587
1097.00,57.588
1097.50,57.556
1098.00,57.557
1098.50,57.549
1099.00,57.519
1099.50,57.519
1100.00,57.510
1100.50,57.523
1101.00,57.491
1101.50,57.484
1102.00,57.488
1102.50,57.487
1103.00,57.488
1103.50,57.465
1104.00,57.471
1104.50,57.479
1105.00,57.471
1105.50,57.455
1106.00,57.466
1106.50,57.443
1107.00,57.441
1107.50,57.426
1108.00,57.422
1108.50,57.443
1109.00,57.408
1109.50,57.408
1110.00,57.391
1110.50,57.376
1111.00,57.396
1111.50,57.357
1112.00,57.352
1112.50,57.350
1113.00,57.360
1113.50,57.360
1114.00,57.358
1114.50,57.341
1115.00,57.350
1115.50,57.319
1116.00,57.344
1116.50,57.329
1117.00,57.342
1117.50,57.316
1118.00,57.354
1118.50,57.318
1119.00,57.316
1119.50,57.314
1120.00,57.347
1120.50,57.285
1121.00,57.335
1121.50,57.329
1122.00,57.329
1122.50,57.309
1123.00,57.329
1123.50,57.269
1124.00,57.319
1124.50,57.305
1125.00,57.343
1125.50,57.287
1126.00,57.309
1126.50,57.296
1127.00,57.331
1127.50,57.302
1128.00,57.293
1128.50,57.303
1129.00,57.324
1129.50,57.277
1130.00,57.273
1130.50,57.279
1131.00,57.305
1131.50,57.274
1132.00,57.277
1132.50,57.286
1133.00,57.316
1133.50,57.300
1134.00,57.319
1134.50,57.299
1135.00,57.255
1135.50,57.336
1136.00,57.258
1136.50,57.296
1137.00,57.311
1137.50,57.294
1138.00,57.317
1138.50,57.291
1139.00,57.297
1139.50,57.295
1140.00,57.301
1140.50,57.323
1141.00,57.335
1141.50,57.325
1142.00,57.306
1142.50,57.321
1143.00,57.318
1143.50,57.312
1144.00,57.296
1144.50,57.347
1145.00,57.348
1145.50,57.336
1146.00,57.377
1146.50,57.340
1147.00,57.375
1147.50,57.412
1148.00,57.387
1148.50,57.367
1149.00,57.401
1149.50,57.368
1150.00,57.359
1150.50,57.407
1151.00,57.389
1151.50,57.397
1152.00,57.414
1152.50,57.377
1153.00,57.385
1153.50,57.394
1154.00,57.400
1154.50,57.408
1155.00,57.402
1155.50,57.425
1156.00,57.411
1156.50,57.410
1157.00,57.424
1157.50,57.436
1158.00,57.424
1158.50,57.459
1159.00,57.437
1159.50,57.458
1160.00,57.461
1160.50,57.463
1161.00,57.487
1161.50,57.490
1162.00,57.492
1162.50,57.504
1163.00,57.510
1163.50,57.448
1164.00,57.511
1164.50,57.522
1165.00,57.536
1165.50,57.532
1166.00,57.556
1166.50,57.546
1167.00,57.547
1167.50,57.580
1168.00,57.570
1168.50,57.582
1169.00,57.605
1169.50,57.601
1170.00,57.609
1170.50,57.614
1171.00,57.613
1171.50,57.636
1172.00,57.645
1172.50,57.651
1173.00,57.643
1173.50,57.664
1174.00,57.681
1174.50,57.657
1175.00,57.684
1175.50,57.687
1176.00,57.696
1176.50,57.701
1177.00,57.720
1177.50,57.731
1178.00,57.747
1178.50,57.739
1179.00,57.739
1179.50,57.768
1180.00,57.746
1180.50,57.769
1181.00,57.776
1181.50,57.782
1182.00,57.773
1182.50,57.788
1183.00,57.789
1183.50,57.799
1184.00,57.808
1184.50,57.823
1185.00,57.844
1185.50,57.856
1186.00,57.873
1186.50,57.857
1187.00,57.874
1187.50,57.869
1188.00,57.902
1188.50,57.913
1189.00,57.925
1189.50,57.936
1190.00,57.935
1190.50,57.965
1191.00,57.974
1191.50,57.993
1192.00,57.997
1192.50,58.006
1193.00,58.005
1193.50,58.037
1194.00,58.050
1194.50,58.076
1195.00,58.090
1195.50,58.110
1196.00,58.106
1196.50,58.112
1197.00,58.117
1197.50,58.147
1198.00,58.150
1198.50,58.159
1199.00,58.171
1199.50,58.173
1200.00,58.183
1200.50,58.190
1201.00,58.201
1201.50,58.217
1202.00,58.231
1202.50,58.242
1203.00,58.252
1203.50,58.282
1204.00,58.259
1204.50,58.276
1205.00,58.294
1205.50,58.303
1206.00,58.306
1206.50,58.344
1207.00,58.322
1207.50,58.350
1208.00,58.341
1208.50,58.353
1209.00,58.408
1209.50,58.413
1210.00,58.402
1210.50,58.420
1211.00,58.419
1211.50,58.439
1212.00,58.452
1212.50,58.463
1213.00,58.492
1213.50,58.496
1214.00,58.514
1214.50,58.540
1215.00,58.549
1215.50,58.595
1216.00,58.567
1216.50,58.596
1217.00,58.602
1217.50,58.633
1218.00,58.663
1218.50,58.636
1219.00,58.656
1219.50,58.690
1220.00,58.684
1220.50,58.706
1221.00,58.735
1221.50,58.741
1222.00,58.774
1222.50,58.776
1223.00,58.799
1223.50,58.813
1224.00,58.837
1224.50,58.849
1225.00,58.865
1225.50,58.854
1226.00,58.897
1226.50,58.900
1227.00,58.915
1227.50,58.926
1228.00,58.933
1228.50,58.968
1229.00,58.967
1229.50,58.996
1230.00,59.003
1230.50,58.998
1231.00,59.054
1231.50,59.051
1232.00,59.065
1232.50,59.066
1233.00,59.061
1233.50,59.100
1234.00,59.095
1234.50,59.117
1235.00,59.145
1235.50,59.142
1236.00,59.162
1236.50,59.191
1237.00,59.194
1237.50,59.242
1238.00,59.224
1238.50,59.258
1239.00,59.258
1239.50,59.298
1240.00,59.303
1240.50,59.331
1241.00,59.351
1241.50,59.358
1242.00,59.372
1242.50,59.381
1243.00,59.415
1243.50,59.420
1244.00,59.450
1244.50,59.456
1245.00,59.500
1245.50,59.514
1246.00,59.507
1246.50,59.556
1247.00,59.561
1247.50,59.564
1248.00,59.602
1248.50,59.616
1249.00,59.629
1249.50,59.650
1250.00,59.662
1250.50,59.679
1251.00,59.675
1251.50,59.726
1252.00,59.740
1252.50,59.774
1253.00,59.773
1253.50,59.786
1254.00,59.834
1254.50,59.841
1255.00,59.854
1255.50,59.894
1256.00,59.897
1256.50,59.909
1257.00,59.912
1257.50,59.926
1258.00,59.970
1258.50,59.974
1259.00,59.993
1259.50,60.010
1260.00,60.021
1260.50,60.058
1261.00,60.053
1261.50,60.103
1262.00,60.099
1262.50,60.097
1263.00,60.141
1263.50,60.144
1264.00,60.171
1264.50,60.153
1265.00,60.182
1265.50,60.212
1266.00,60.224
1266.50,60.248
1267.00,60.274
1267.50,60.291
1268.00,60.317
1268.50,60.335
1269.00,60.338
1269.50,60.374
1270.00,60.386
1270.50,60.413
1271.00,60.424
1271.50,60.441
1272.00,60.465
1272.50,60.493
1273.00,60.528
1273.50,60.522
1274.00,60.556
1274.50,60.572
1275.00,60.590
1275.50,60.575
1276.00,60.633
1276.50,60.646
1277.00,60.674
1277.50,60.683
1278.00,60.715
1278.50,60.740
1279.00,60.778
1279.50,60.760
1280.00,60.783
1280.50,60.810
1281.00,60.812
1281.50,60.852
1282.00,60.870
1282.50,60.866
1283.00,60.894
1283.50,60.913
1284.00,60.972
1284.50,60.968
1285.00,60.965
1285.50,61.016
1286.00,61.001
1286.50,61.023
1287.00,61.026
1287.50,61.049
1288.00,61.093
1288.50,61.085
1289.00,61.119
1289.50,61.122
1290.00,61.149
1290.50,61.152
1291.00,61.177
1291.50,61.204
1292.00,61.204
1292.50,61.254
1293.00,61.257
1293.50,61.274
1294.00,61.297
1294.50,61.310
1295.00,61.341
1295.50,61.336
1296.00,61.345
1296.50,61.385
1297.00,61.408
1297.50,61.421
1298.00,61.477
1298.50,61.478
1299.00,61.502
1299.50,61.510
1300.00,61.541
1300.50,61.547
1301.00,61.597
1301.50,61.598
1302.00,61.611
1302.50,61.653
1303.00,61.651
1303.50,61.698
1304.00,61.734
1304.50,61.757
1305.00,61.770
1305.50,61.787
1306.00,61.816
1306.50,61.829
1307.00,61.845
1307.50,61.866
1308.00,61.883
1308.50,61.912
1309.00,61.925
1309.50,61.944
1310.00,61.963
1310.50,61.976
1311.00,62.026
1311.50,62.003
1312.00,62.040
1312.50,62.066
1313.00,62.075
1313.50,62.111
1314.00,62.108
1314.50,62.125
1315.00,62.142
1315.50,62.166
1316.00,62.190
1316.50,62.205
1317.00,62.229
1317.50,62.241
1318.00,62.260
1318.50,62.284
1319.00,62.286
1319.50,62.309
1320.00,62.325
1320.50,62.326
1321.00,62.352
1321.50,62.365
1322.00,62.379
1322.50,62.386
1323.00,62.419
1323.50,62.441
1324.00,62.432
1324.50,62.462
1325.00,62.484
1325.50,62.511
1326.00,62.508
1326.50,62.536
1327.00,62.569
1327.50,62.567
1328.00,62.599
1328.50,62.615
1329.00,62.628
1329.50,62.663
1330.00,62.662
1330.50,62.689
1331.00,62.701
1331.50,62.716
1332.00,62.753
1332.50,62.742
1333.00,62.750
1333.50,62.771
1334.00,62.810
1334.50,62.812
1335.00,62.835
1335.50,62.860
1336.00,62.846
1336.50,62.895
1337.00,62.924
1337.50,62.948
1338.00,62.919
1338.50,62.961
1339.00,62.982
1339.50,62.981
1340.00,62.990
1340.50,63.009
1341.00,63.020
1341.50,63.024
1342.00,63.040
1342.50,63.075
1343.00,63.087
1343.50,63.102
1344.00,63.111
1344.50,63.107
1345.00,63.142
1345.50,63.111
1346.00,63.188
1346.50,63.160
1347.00,63.215
1347.50,63.168
1348.00,63.289
1348.50,63.214
1349.00,63.204
1349.50,63.243
1350.00,63.238
1350.50,63.143
1351.00,63.270
1351.50,63.183
1352.00,63.284
1352.50,63.345
1353.00,63.269
1353.50,63.226
1354.00,63.421
1354.50,63.301
1355.00,63.304
1355.50,63.338
1356.00,63.028
1356.50,63.700
1357.00,63.313
1357.50,63.276
1358.00,63.587
1358.50,63.208
1359.00,63.555
1359.50,63.241
1360.00,63.252
1360.50,63.573
1361.00,63.472
1361.50,63.380
1362.00,63.825
1362.50,63.179
1363.00,63.397
1363.50,63.353
1364.00,64.285
1364.50,62.923
1365.00,63.802
1365.50,63.208
1366.00,63.477
1366.50,63.473
1367.00,63.794
1367.50,63.260
1368.00,63.917
1368.50,63.070
1369.00,63.536
1369.50,63.818
1370.00,63.113
1370.50,64.115
1371.00,63.168
1371.50,63.867
1372.00,63.473
1372.50,63.623
1373.00,63.654
1373.50,63.608
1374.00,63.658
1374.50,63.707
1375.00,63.550
1375.50,63.725
1376.00,63.469
1376.50,63.938
1377.00,63.432
1377.50,63.554
1378.00,63.874
1378.50,63.515
1379.00,63.542
1379.50,63.477
1380.00,64.178
1380.50,63.415
1381.00,63.412
1381.50,63.466
1382.00,64.140
1382.50,63.397
1383.00,63.433
1383.50,64.008
1384.00,63.361
1384.50,64.092
1385.00,63.485
1385.50,63.713
1386.00,63.795
1386.50,63.609
1387.00,63.580
1387.50,64.361
1388.00,63.491
1388.50,63.674
1389.00,63.659
1389.50,63.872
1390.00,63.550
1390.50,63.725
1391.00,63.638
1391.50,63.502
1392.00,64.943
1392.50,63.235
1393.00,63.627
1393.50,63.714
1394.00,63.409
1394.50,64.200
1395.00,63.728
1395.50,63.170
1396.00,64.739
1396.50,63.146
1397.00,63.707
1397.50,63.655
1398.00,63.761
1398.50,63.552
1399.00,64.021
1399.50,63.809
1400.00,63.578
1400.50,63.970
1401.00,63.609
1401.50,63.639
1402.00,63.564
1402.50,63.792
1403.00,63.695
1403.50,63.682
1404.00,63.502
1404.50,64.628
1405.00,63.263
1405.50,63.589
1406.00,63.604
1406.50,63.927
1407.00,63.942
1407.50,63.562
1408.00,63.670
1408.50,63.692
1409.00,64.092
1409.50,63.554
1410.00,63.535
1410.50,63.753
1411.00,63.730
1411.50,63.707
1412.00,63.903
1412.50,63.572
1413.00,63.715
1413.50,63.858
1414.00,63.871
1414.50,63.581
1415.00,63.707
1415.50,63.665
1416.00,63.693
1416.50,63.676
1417.00,63.803
1417.50,63.664
1418.00,63.593
1418.50,63.927
1419.00,63.668
1419.50,63.699
1420.00,63.663
1420.50,63.729
1421.00,63.711
1421.50,63.683
1422.00,63.701
1422.50,63.708
1423.00,63.697
1423.50,63.846
1424.00,63.587
1424.50,63.678
1425.00,63.722
1425.50,63.701
1426.00,63.682
1426.50,63.688
1427.00,63.701
1427.50,63.687
1428.00,63.710
1428.50,63.691
1429.00,63.644
1429.50,63.739
1430.00,63.606
1430.50,63.699
1431.00,63.723
1431.50,63.626
1432.00,63.836
1432.50,63.565
1433.00,63.671
1433.50,63.678
1434.00,63.711
1434.50,63.591
1435.00,63.695
1435.50,63.707
1436.00,63.704
1436.50,63.667
1437.00,63.763
1437.50,63.793
1438.00,63.603
1438.50,63.668
1439.00,63.791
1439.50,63.667
1440.00,63.690
1440.50,63.667
1441.00,63.818
1441.50,63.712
1442.00,63.685
1442.50,63.794
1443.00,63.666
1443.50,63.712
1444.00,63.710
1444.50,63.633
1445.00,63.767
1445.50,63.806
1446.00,63.544
1446.50,63.725
1447.00,63.684
1447.50,63.712
1448.00,63.722
1448.50,63.655
1449.00,63.693
1449.50,63.681
1450.00,63.767
1450.50,63.765
1451.00,63.649
1451.50,63.657
1452.00,63.749
1452.50,63.675
1453.00,63.683
1453.50,63.691
1454.00,63.692
1454.50,63.673
1455.00,63.799
1455.50,63.659
1456.00,63.679
1456.50,63.659
1457.00,63.700
1457.50,63.691
1458.00,63.662
1458.50,63.677
1459.00,63.692
1459.50,63.680
1460.00,63.718
1460.50,63.679
1461.00,63.679
1461.50,63.682
1462.00,63.679
1462.50,63.642
1463.00,63.696
1463.50,63.645
1464.00,63.665
1464.50,63.654
1465.00,63.740
1465.50,63.684
1466.00,63.693
1466.50,63.675
1467.00,63.689
1467.50,63.679
1468.00,63.702
1468.50,63.670
1469.00,63.656
1469.50,63.783
1470.00,63.620
1470.50,63.727
1471.00,63.764
1471.50,63.647
1472.00,63.701
1472.50,63.764
1473.00,63.647
1473.50,63.724
1474.00,63.706
1474.50,63.713
1475.00,63.708
1475.50,63.756
1476.00,63.768
1476.50,63.717
1477.00,63.786
1477.50,63.750
1478.00,63.777
1478.50,63.708
1479.00,63.753
1479.50,63.776
1480.00,63.755
1480.50,63.786
1481.00,63.706
1481.50,63.775
1482.00,63.770
1482.50,63.780
1483.00,63.760
1483.50,63.788
1484.00,63.806
1484.50,63.806
1485.00,63.779
1485.50,63.836
1486.00,63.793
1486.50,63.842
1487.00,63.808
1487.50,63.774
1488.00,63.823
1488.50,63.811
1489.00,63.828
1489.50,63.852
1490.00,63.825
1490.50,63.830
1491.00,63.833
1491.50,63.856
1492.00,63.843
1492.50,63.823
1493.00,63.838
1493.50,63.846
1494.00,63.867
1494.50,63.849
1495.00,63.849
1495.50,63.858
1496.00,63.823
1496.50,63.844
1497.00,63.838
1497.50,63.859
1498.00,63.871
1498.50,63.859
1499.00,63.867
1499.50,63.865
1500.00,63.900
1500.50,63.869
1501.00,63.867
1501.50,63.894
1502.00,63.888
1502.50,63.893
1503.00,63.915
1503.50,63.895
1504.00,63.887
1504.50,63.910
1505.00,63.926
1505.50,63.940
1506.00,63.938
1506.50,63.964
1507.00,63.929
1507.50,63.963
1508.00,63.959
1508.50,63.967
1509.00,63.968
1509.50,63.984
1510.00,64.001
1510.50,63.994
1511.00,64.018
1511.50,63.995
1512.00,64.002
1512.50,64.010
1513.00,64.004
1513.50,64.048
1514.00,64.056
1514.50,64.012
1515.00,64.055
1515.50,64.058
1516.00,64.054
1516.50,64.104
1517.00,64.115
1517.50,64.071
1518.00,64.083
1518.50,64.107
1519.00,64.088
1519.50,64.113
1520.00,64.102
1520.50,64.111
1521.00,64.124
1521.50,64.153
1522.00,64.142
1522.50,64.159
1523.00,64.139
1523.50,64.134
1524.00,64.183
1524.50,64.199
1525.00,64.181
1525.50,64.192
1526.00,64.168
1526.50,64.197
1527.00,64.200
1527.50,64.201
1528.00,64.230
1528.50,64.220
1529.00,64.202
1529.50,64.244
1530.00,64.215
1530.50,64.238
1531.00,64.260
1531.50,64.230
1532.00,64.244
1532.50,64.249
1533.00,64.279
1533.50,64.257
1534.00,64.262
1534.50,64.286
1535.00,64.247
1535.50,64.301
1536.00,64.314
1536.50,64.295
1537.00,64.285
1537.50,64.294
1538.00,64.313
1538.50,64.341
1539.00,64.325
1539.50,64.334
1540.00,64.328
1540.50,64.332
1541.00,64.339
1541.50,64.335
1542.00,64.339
1542.50,64.345
1543.00,64.373
1543.50,64.335
1544.00,64.380
1544.50,64.377
1545.00,64.360
1545.50,64.377
1546.00,64.401
1546.50,64.374
1547.00,64.390
1547.50,64.393
1548.00,64.421
1548.50,64.419
1549.00,64.454
1549.50,64.418
1550.00,64.426
1550.50,64.456
1551.00,64.451
1551.50,64.455
1552.00,64.442
1552.50,64.480
1553.00,64.500
1553.50,64.507
1554.00,64.467
1554.50,64.508
1555.00,64.465
1555.50,64.511
1556.00,64.526
1556.50,64.539
1557.00,64.549
1557.50,64.555
1558.00,64.536
1558.50,64.574
1559.00,64.573
1559.50,64.588
1560.00,64.585
1560.50,64.585
1561.00,64.541
1561.50,64.617
1562.00,64.587
1562.50,64.600
1563.00,64.591
1563.50,64.588
1564.00,64.598
1564.50,64.612
1565.00,64.666
1565.50,64.619
1566.00,64.657
1566.50,64.660
1567.00,64.637
1567.50,64.646
1568.00,64.651
1568.50,64.677
1569.00,64.694
1569.50,64.655
1570.00,64.677
1570.50,64.691
1571.00,64.696
1571.50,64.696
1572.00,64.683
1572.50,64.676
1573.00,64.677
1573.50,64.664
1574.00,64.687
1574.50,64.719
1575.00,64.688
1575.50,64.723
1576.00,64.706
1576.50,64.682
1577.00,64.733
1577.50,64.730
1578.00,64.714
1578.50,64.716
1579.00,64.718
1579.50,64.730
1580.00,64.736
1580.50,64.750
1581.00,64.714
1581.50,64.749
1582.00,64.753
1582.50,64.749
1583.00,64.742
1583.50,64.780
1584.00,64.746
1584.50,64.743
1585.00,64.725
1585.50,64.762
1586.00,64.732
1586.50,64.757
1587.00,64.769
1587.50,64.753
1588.00,64.793
1588.50,64.796
1589.00,64.778
1589.50,64.786
1590.00,64.784
1590.50,64.778
1591.00,64.802
1591.50,64.772
1592.00,64.763
1592.50,64.756
1593.00,64.767
1593.50,64.787
1594.00,64.751
1594.50,64.779
1595.00,64.791
1595.50,64.777
1596.00,64.821
1596.50,64.775
1597.00,64.782
1597.50,64.809
1598.00,64.786
1598.50,64.811
1599.00,64.841
1599.50,64.809
1600.00,64.821
