"sample_bily - RawData"
"Wavelength nm.","T%"
200.00,-0.100
200.50,0.261
201.00,0.106
201.50,0.099
202.00,0.128
202.50,-0.050
203.00,-0.022
203.50,-0.019
204.00,0.039
204.50,0.107
205.00,0.010
205.50,-0.012
206.00,0.105
206.50,0.028
207.00,0.135
207.50,0.105
208.00,0.056
208.50,0.038
209.00,0.084
209.50,-0.039
210.00,0.072
210.50,0.016
211.00,0.011
211.50,-0.001
212.00,0.004
212.50,0.005
213.00,0.086
213.50,0.047
214.00,-0.002
214.50,0.023
215.00,0.008
215.50,0.006
216.00,0.051
216.50,0.003
217.00,-0.001
217.50,-0.000
218.00,0.021
218.50,0.038
219.00,0.033
219.50,0.013
220.00,0.003
220.50,0.003
221.00,0.001
221.50,0.026
222.00,0.013
222.50,0.023
223.00,-0.006
223.50,0.002
224.00,-0.012
224.50,0.021
225.00,0.013
225.50,-0.004
226.00,0.009
226.50,0.023
227.00,0.005
227.50,0.006
228.00,0.011
228.50,-0.026
229.00,0.010
229.50,-0.004
230.00,-0.003
230.50,-0.013
231.00,-0.002
231.50,-0.014
232.00,0.001
232.50,-0.008
233.00,-0.010
233.50,0.009
234.00,0.019
234.50,0.002
235.00,0.008
235.50,0.008
236.00,0.005
236.50,-0.010
237.00,0.001
237.50,0.003
238.00,-0.004
238.50,0.004
239.00,0.006
239.50,-0.002
240.00,0.002
240.50,-0.001
241.00,-0.001
241.50,0.008
242.00,-0.007
242.50,-0.003
243.00,0.012
243.50,-0.007
244.00,0.008
244.50,0.003
245.00,0.014
245.50,-0.007
246.00,-0.002
246.50,-0.001
247.00,-0.004
247.50,0.007
248.00,0.010
248.50,-0.004
249.00,0.005
249.50,0.017
250.00,0.000
250.50,0.013
251.00,0.008
251.50,0.004
252.00,0.004
252.50,0.015
253.00,-0.001
253.50,0.006
254.00,0.007
254.50,0.013
255.00,0.000
255.50,0.022
256.00,0.010
256.50,0.028
257.00,0.031
257.50,0.026
258.00,0.030
258.50,0.053
259.00,0.047
259.50,0.053
260.00,0.071
260.50,0.073
261.00,0.078
261.50,0.113
262.00,0.109
262.50,0.132
263.00,0.147
263.50,0.170
264.00,0.199
264.50,0.223
265.00,0.268
265.50,0.275
266.00,0.331
266.50,0.380
267.00,0.417
267.50,0.470
268.00,0.540
268.50,0.613
269.00,0.669
269.50,0.755
270.00,0.834
270.50,0.928
271.00,1.058
271.50,1.148
272.00,1.255
272.50,1.416
273.00,1.530
273.50,1.730
274.00,1.872
274.50,2.068
275.00,2.208
275.50,2.459
276.00,2.729
276.50,3.026
277.00,3.292
277.50,3.525
278.00,3.774
278.50,4.092
279.00,4.453
279.50,4.845
280.00,5.187
280.50,5.658
281.00,6.062
281.50,6.459
282.00,7.002
282.50,7.433
283.00,8.003
283.50,8.520
284.00,9.122
284.50,9.765
285.00,10.356
285.50,11.034
286.00,11.734
286.50,12.356
287.00,13.006
287.50,13.864
288.00,14.575
288.50,15.394
289.00,15.961
289.50,16.990
290.00,17.648
290.50,18.576
291.00,19.366
291.50,20.216
292.00,21.156
292.50,22.027
293.00,22.943
293.50,23.721
294.00,24.812
294.50,25.703
295.00,26.578
295.50,27.677
296.00,28.628
296.50,29.557
297.00,30.775
297.50,31.570
298.00,32.368
298.50,33.662
299.00,34.432
299.50,35.500
300.00,36.327
300.50,37.303
301.00,38.987
301.50,39.475
302.00,40.538
302.50,41.334
303.00,42.154
303.50,42.899
304.00,44.438
304.50,44.751
305.00,45.856
305.50,46.462
306.00,47.382
306.50,48.198
307.00,49.147
307.50,49.983
308.00,51.034
308.50,51.839
309.00,52.614
309.50,53.114
310.00,54.262
310.50,54.714
311.00,55.623
311.50,56.194
312.00,57.159
312.50,57.778
313.00,58.606
313.50,59.389
314.00,59.675
314.50,60.525
315.00,60.656
315.50,61.231
316.00,61.925
316.50,62.562
317.00,62.938
317.50,63.430
318.00,64.155
318.50,64.356
319.00,65.123
319.50,65.418
320.00,65.243
320.50,66.494
321.00,66.832
321.50,66.968
322.00,67.195
322.50,67.803
323.00,68.091
323.50,68.565
324.00,69.001
324.50,69.032
325.00,69.990
325.50,70.458
326.00,70.652
326.50,70.820
327.00,70.760
327.50,71.649
328.00,72.033
328.50,71.634
329.00,72.039
329.50,71.966
330.00,72.830
330.50,73.160
331.00,73.287
331.50,72.630
332.00,73.387
332.50,73.704
333.00,73.221
333.50,74.072
334.00,74.416
334.50,73.865
335.00,74.620
335.50,74.700
336.00,74.449
336.50,74.794
337.00,74.946
337.50,75.060
338.00,74.895
338.50,75.507
339.00,75.751
339.50,75.700
340.00,75.318
340.50,75.788
341.00,79.349
341.50,80.545
342.00,79.499
342.50,80.003
343.00,79.995
343.50,77.814
344.00,79.515
344.50,79.204
345.00,79.705
345.50,79.048
346.00,79.632
346.50,79.789
347.00,79.898
347.50,80.414
348.00,78.960
348.50,78.652
349.00,79.058
349.50,79.845
350.00,79.688
350.50,79.366
351.00,80.257
351.50,80.479
352.00,80.397
352.50,79.762
353.00,79.106
353.50,79.123
354.00,79.520
354.50,80.120
355.00,80.748
355.50,80.018
356.00,79.974
356.50,79.751
357.00,79.646
357.50,79.903
358.00,80.270
358.50,80.325
359.00,80.174
359.50,80.499
360.00,80.340
360.50,79.758
361.00,79.657
361.50,80.101
362.00,80.143
362.50,79.458
363.00,79.933
363.50,78.801
364.00,77.958
364.50,77.263
365.00,76.818
365.50,76.603
366.00,77.384
366.50,79.412
367.00,79.321
367.50,79.749
368.00,80.237
368.50,80.709
369.00,80.807
369.50,80.727
370.00,80.620
370.50,80.656
371.00,80.734
371.50,80.665
372.00,80.496
372.50,80.822
373.00,80.958
373.50,80.198
374.00,79.840
374.50,79.449
375.00,76.887
375.50,69.085
376.00,63.317
376.50,59.605
377.00,57.948
377.50,58.492
378.00,59.449
378.50,62.692
379.00,67.369
379.50,69.355
380.00,70.916
380.50,71.450
381.00,70.881
381.50,71.068
382.00,72.509
382.50,74.321
383.00,76.262
383.50,77.570
384.00,79.146
384.50,79.481
385.00,79.447
385.50,79.621
386.00,79.602
386.50,79.783
387.00,80.221
387.50,80.444
388.00,81.145
388.50,81.153
389.00,81.020
389.50,81.440
390.00,81.832
390.50,81.677
391.00,82.156
391.50,81.858
392.00,82.073
392.50,81.948
393.00,81.991
393.50,81.780
394.00,81.914
394.50,81.841
395.00,82.214
395.50,81.986
396.00,82.444
396.50,81.914
397.00,82.228
397.50,82.243
398.00,82.108
398.50,82.009
399.00,82.581
399.50,82.378
400.00,82.224
400.50,82.459
401.00,82.170
401.50,82.542
402.00,82.021
402.50,82.015
403.00,82.303
403.50,82.454
404.00,82.222
404.50,82.231
405.00,82.065
405.50,81.467
406.00,81.531
406.50,81.454
407.00,81.278
407.50,81.553
408.00,81.667
408.50,81.767
409.00,81.699
409.50,81.892
410.00,82.228
410.50,82.400
411.00,82.129
411.50,82.167
412.00,81.952
412.50,82.445
413.00,82.320
413.50,82.453
414.00,82.106
414.50,82.684
415.00,82.389
415.50,82.563
416.00,82.476
416.50,82.307
417.00,82.563
417.50,82.430
418.00,82.524
418.50,82.544
419.00,82.590
419.50,82.749
420.00,82.419
420.50,82.659
421.00,82.695
421.50,82.626
422.00,82.478
422.50,82.552
423.00,82.770
423.50,83.161
424.00,82.962
424.50,82.678
425.00,82.612
425.50,82.607
426.00,82.794
426.50,82.953
427.00,82.621
427.50,82.716
428.00,82.648
428.50,82.727
429.00,82.881
429.50,82.742
430.00,83.093
430.50,82.866
431.00,82.629
431.50,82.991
432.00,82.770
432.50,82.828
433.00,82.845
433.50,82.460
434.00,82.806
434.50,82.872
435.00,83.021
435.50,83.104
436.00,82.828
436.50,83.045
437.00,82.893
437.50,83.028
438.00,82.827
438.50,83.091
439.00,82.919
439.50,82.818
440.00,82.826
440.50,82.675
441.00,83.009
441.50,82.494
442.00,82.566
442.50,82.679
443.00,82.685
443.50,82.658
444.00,82.793
444.50,82.653
445.00,82.776
445.50,82.936
446.00,82.845
446.50,82.860
447.00,83.026
447.50,82.795
448.00,82.782
448.50,82.886
449.00,82.677
449.50,82.631
450.00,82.977
450.50,82.777
451.00,82.484
451.50,82.540
452.00,82.370
452.50,82.442
453.00,82.752
453.50,82.610
454.00,82.552
454.50,82.909
455.00,82.950
455.50,83.004
456.00,83.071
456.50,83.215
457.00,83.010
457.50,82.978
458.00,83.044
458.50,82.982
459.00,82.977
459.50,83.152
460.00,83.361
460.50,83.529
461.00,83.379
461.50,83.417
462.00,83.263
462.50,83.210
463.00,83.255
463.50,83.632
464.00,83.297
464.50,83.332
465.00,83.207
465.50,83.461
466.00,83.417
466.50,83.367
467.00,83.422
467.50,83.405
468.00,83.692
468.50,83.433
469.00,83.567
469.50,83.543
470.00,83.544
470.50,83.293
471.00,83.427
471.50,83.608
472.00,83.312
472.50,83.523
473.00,83.558
473.50,83.343
474.00,83.523
474.50,83.441
475.00,83.566
475.50,83.450
476.00,83.370
476.50,83.565
477.00,83.372
477.50,83.537
478.00,83.715
478.50,83.635
479.00,83.501
479.50,83.495
480.00,83.454
480.50,83.346
481.00,83.283
481.50,83.439
482.00,83.208
482.50,83.205
483.00,82.896
483.50,82.726
484.00,82.835
484.50,82.496
485.00,82.348
485.50,82.281
486.00,82.054
486.50,81.983
487.00,81.927
487.50,81.840
488.00,81.804
488.50,81.735
489.00,81.862
489.50,82.033
490.00,82.144
490.50,82.373
491.00,82.423
491.50,82.685
492.00,82.854
492.50,83.044
493.00,83.197
493.50,83.278
494.00,83.556
494.50,83.262
495.00,83.436
495.50,83.308
496.00,83.307
496.50,83.433
497.00,83.454
497.50,83.461
498.00,83.624
498.50,83.631
499.00,83.825
499.50,83.589
500.00,83.922
500.50,83.855
501.00,83.815
501.50,83.724
502.00,83.797
502.50,83.908
503.00,84.017
503.50,83.864
504.00,83.909
504.50,84.041
505.00,83.980
505.50,83.837
506.00,83.895
506.50,83.916
507.00,83.822
507.50,83.887
508.00,83.900
508.50,83.678
509.00,83.872
509.50,83.851
510.00,83.832
510.50,84.007
511.00,83.845
511.50,83.828
512.00,83.873
512.50,83.705
513.00,83.552
513.50,83.549
514.00,83.376
514.50,83.419
515.00,83.186
515.50,82.912
516.00,81.646
516.50,78.803
517.00,75.126
517.50,72.811
518.00,70.175
518.50,68.399
519.00,68.437
519.50,68.668
520.00,68.740
520.50,68.411
521.00,67.830
521.50,68.379
522.00,69.617
522.50,71.365
523.00,72.965
523.50,74.627
524.00,75.784
524.50,76.955
525.00,78.320
525.50,79.243
526.00,80.165
526.50,80.745
527.00,81.646
527.50,81.970
528.00,82.355
528.50,82.585
529.00,82.961
529.50,82.945
530.00,83.088
530.50,83.170
531.00,83.130
531.50,83.077
532.00,83.194
532.50,83.165
533.00,83.184
533.50,83.303
534.00,83.402
534.50,83.580
535.00,83.660
535.50,83.939
536.00,83.949
536.50,84.101
537.00,84.129
537.50,84.179
538.00,84.317
538.50,84.419
539.00,84.356
539.50,84.269
540.00,84.334
540.50,84.607
541.00,84.505
541.50,84.417
542.00,84.132
542.50,84.161
543.00,83.995
543.50,83.877
544.00,83.748
544.50,83.798
545.00,84.038
545.50,83.883
546.00,83.934
546.50,83.977
547.00,83.912
547.50,83.991
548.00,83.979
548.50,84.342
549.00,84.422
549.50,84.578
550.00,84.642
550.50,84.730
551.00,84.531
551.50,84.915
552.00,84.962
552.50,84.799
553.00,84.867
553.50,84.938
554.00,84.996
554.50,84.885
555.00,84.898
555.50,84.931
556.00,85.025
556.50,84.984
557.00,84.891
557.50,84.980
558.00,84.933
558.50,84.905
559.00,84.965
559.50,85.074
560.00,85.036
560.50,85.263
561.00,85.075
561.50,85.021
562.00,85.282
562.50,85.057
563.00,85.261
563.50,85.166
564.00,85.364
564.50,85.222
565.00,85.050
565.50,85.284
566.00,85.299
566.50,85.277
567.00,85.410
567.50,85.422
568.00,85.165
568.50,85.180
569.00,85.264
569.50,85.195
570.00,85.317
570.50,85.360
571.00,85.240
571.50,85.326
572.00,85.459
572.50,85.270
573.00,85.509
573.50,85.324
574.00,85.254
574.50,85.585
575.00,85.336
575.50,85.314
576.00,85.360
576.50,85.461
577.00,85.341
577.50,85.309
578.00,85.338
578.50,85.298
579.00,85.342
579.50,85.237
580.00,85.427
580.50,85.254
581.00,85.414
581.50,85.319
582.00,85.406
582.50,85.269
583.00,85.277
583.50,85.343
584.00,85.408
584.50,85.419
585.00,85.337
585.50,85.364
586.00,85.371
586.50,85.449
587.00,85.409
587.50,85.333
588.00,85.363
588.50,85.530
589.00,85.465
589.50,85.639
590.00,85.508
590.50,85.439
591.00,85.338
591.50,85.361
592.00,85.434
592.50,85.489
593.00,85.669
593.50,85.621
594.00,85.496
594.50,85.473
595.00,85.433
595.50,85.532
596.00,85.525
596.50,85.697
597.00,85.539
597.50,85.695
598.00,85.423
598.50,85.545
599.00,85.472
599.50,85.591
600.00,85.648
600.50,85.632
601.00,85.646
601.50,85.582
602.00,85.588
602.50,85.597
603.00,85.709
603.50,85.556
604.00,85.697
604.50,85.648
605.00,85.575
605.50,85.662
606.00,85.641
606.50,85.713
607.00,85.603
607.50,85.657
608.00,85.744
608.50,85.539
609.00,85.928
609.50,85.837
610.00,85.571
610.50,85.564
611.00,85.792
611.50,85.630
612.00,85.747
612.50,85.725
613.00,85.719
613.50,85.675
614.00,85.823
614.50,85.705
615.00,85.869
615.50,85.724
616.00,85.753
616.50,85.812
617.00,85.891
617.50,85.787
618.00,85.763
618.50,85.701
619.00,85.717
619.50,85.794
620.00,85.889
620.50,85.657
621.00,85.769
621.50,85.955
622.00,85.673
622.50,85.870
623.00,85.934
623.50,85.900
624.00,85.900
624.50,85.807
625.00,85.968
625.50,85.857
626.00,85.777
626.50,85.870
627.00,85.878
627.50,85.862
628.00,85.690
628.50,85.874
629.00,85.715
629.50,85.872
630.00,85.728
630.50,85.773
631.00,85.872
631.50,85.956
632.00,85.870
632.50,85.964
633.00,85.948
633.50,85.889
634.00,85.931
634.50,85.911
635.00,85.850
635.50,86.087
636.00,85.815
636.50,85.784
637.00,85.906
637.50,86.001
638.00,85.805
638.50,85.870
639.00,85.847
639.50,85.920
640.00,85.848
640.50,85.884
641.00,85.747
641.50,85.614
642.00,85.517
642.50,85.665
643.00,85.548
643.50,85.355
644.00,85.034
644.50,85.120
645.00,84.911
645.50,84.875
646.00,84.870
646.50,84.801
647.00,84.781
647.50,84.546
648.00,84.501
648.50,84.461
649.00,84.137
649.50,84.227
650.00,84.296
650.50,84.355
651.00,83.857
651.50,84.104
652.00,84.093
652.50,84.477
653.00,84.265
653.50,84.339
654.00,84.624
654.50,84.346
655.00,84.578
655.50,84.602
656.00,84.699
656.50,84.621
657.00,84.586
657.50,84.859
658.00,84.767
658.50,84.733
659.00,85.061
659.50,84.791
660.00,84.980
660.50,85.026
661.00,85.209
661.50,85.313
662.00,85.192
662.50,85.420
663.00,85.449
663.50,85.635
664.00,85.819
664.50,85.932
665.00,85.757
665.50,85.763
666.00,85.814
666.50,85.716
667.00,85.786
667.50,85.869
668.00,85.922
668.50,85.928
669.00,85.886
669.50,85.906
670.00,85.914
670.50,85.949
671.00,85.786
671.50,85.884
672.00,86.131
672.50,85.841
673.00,85.936
673.50,85.901
674.00,85.956
674.50,86.068
675.00,86.135
675.50,86.012
676.00,85.955
676.50,86.040
677.00,85.870
677.50,86.153
678.00,86.102
678.50,86.052
679.00,86.234
679.50,86.131
680.00,86.129
680.50,86.047
681.00,86.230
681.50,86.348
682.00,86.207
682.50,86.228
683.00,86.443
683.50,86.301
684.00,86.262
684.50,86.254
685.00,86.421
685.50,86.525
686.00,86.356
686.50,86.113
687.00,85.908
687.50,86.436
688.00,86.188
688.50,86.230
689.00,86.115
689.50,86.138
690.00,86.067
690.50,86.311
691.00,86.244
691.50,86.348
692.00,86.398
692.50,86.294
693.00,86.326
693.50,86.251
694.00,86.571
694.50,86.360
695.00,86.434
695.50,86.452
696.00,86.536
696.50,86.366
697.00,86.439
697.50,86.359
698.00,86.258
698.50,86.319
699.00,86.460
699.50,86.139
700.00,86.332
700.50,86.444
701.00,86.193
701.50,86.419
702.00,86.453
702.50,86.860
703.00,86.532
703.50,86.462
704.00,86.316
704.50,86.402
705.00,86.476
705.50,86.310
706.00,86.277
706.50,86.367
707.00,86.573
707.50,86.318
708.00,86.445
708.50,86.200
709.00,86.534
709.50,86.405
710.00,86.488
710.50,86.605
711.00,86.550
711.50,86.168
712.00,86.468
712.50,86.636
713.00,86.704
713.50,86.536
714.00,86.267
714.50,86.589
715.00,86.545
715.50,86.369
716.00,86.424
716.50,86.224
717.00,86.564
717.50,86.492
718.00,86.562
718.50,86.946
719.00,86.418
719.50,86.476
720.00,86.698
720.50,86.597
721.00,86.616
721.50,86.861
722.00,86.350
722.50,86.694
723.00,86.743
723.50,86.788
724.00,86.596
724.50,86.501
725.00,86.396
725.50,86.474
726.00,86.544
726.50,86.316
727.00,86.263
727.50,86.519
728.00,86.229
728.50,86.542
729.00,86.503
729.50,86.461
730.00,86.811
730.50,86.813
731.00,86.826
731.50,86.481
732.00,86.633
732.50,86.523
733.00,86.750
733.50,86.839
734.00,86.498
734.50,86.739
735.00,86.741
735.50,86.139
736.00,86.798
736.50,86.632
737.00,86.508
737.50,86.900
738.00,86.445
738.50,86.586
739.00,86.970
739.50,86.504
740.00,86.556
740.50,86.952
741.00,86.607
741.50,86.785
742.00,86.617
742.50,86.737
743.00,86.639
743.50,86.788
744.00,86.723
744.50,86.493
745.00,86.751
745.50,86.602
746.00,86.668
746.50,86.674
747.00,86.750
747.50,86.640
748.00,86.693
748.50,86.646
749.00,87.029
749.50,86.898
750.00,87.036
750.50,86.813
751.00,86.718
751.50,86.651
752.00,87.081
752.50,86.662
753.00,86.740
753.50,87.038
754.00,86.820
754.50,86.312
755.00,86.642
755.50,86.924
756.00,86.673
756.50,86.802
757.00,86.541
757.50,86.521
758.00,86.879
758.50,86.440
759.00,86.536
759.50,86.622
760.00,87.006
760.50,86.522
761.00,86.574
761.50,86.824
762.00,86.740
762.50,86.810
763.00,86.730
763.50,87.042
764.00,86.920
764.50,86.630
765.00,86.568
765.50,86.714
766.00,86.795
766.50,86.759
767.00,86.785
767.50,86.879
768.00,87.050
768.50,86.552
769.00,87.036
769.50,86.980
770.00,86.460
770.50,86.597
771.00,86.768
771.50,86.457
772.00,86.434
772.50,87.145
773.00,86.626
773.50,86.848
774.00,86.538
774.50,86.567
775.00,86.677
775.50,87.330
776.00,86.660
776.50,86.891
777.00,86.902
777.50,87.074
778.00,86.829
778.50,87.212
779.00,87.078
779.50,86.925
780.00,86.959
780.50,87.048
781.00,86.792
781.50,86.727
782.00,86.649
782.50,87.007
783.00,86.602
783.50,87.006
784.00,86.720
784.50,86.882
785.00,86.943
785.50,86.675
786.00,86.604
786.50,86.910
787.00,86.318
787.50,86.545
788.00,86.662
788.50,86.679
789.00,86.765
789.50,86.822
790.00,86.752
790.50,86.597
791.00,86.350
791.50,86.727
792.00,86.501
792.50,86.266
793.00,86.137
793.50,85.921
794.00,86.257
794.50,86.074
795.00,86.458
795.50,86.610
796.00,86.473
796.50,86.132
797.00,86.053
797.50,86.339
798.00,86.560
798.50,86.580
799.00,86.480
799.50,85.805
800.00,86.644
800.50,86.452
801.00,86.375
801.50,86.458
802.00,86.363
802.50,85.863
803.00,85.892
803.50,85.877
804.00,86.385
804.50,86.008
805.00,86.107
805.50,87.007
806.00,86.041
806.50,86.898
807.00,86.113
807.50,86.376
808.00,86.330
808.50,86.023
809.00,86.498
809.50,86.314
810.00,86.043
810.50,85.724
811.00,86.282
811.50,86.798
812.00,86.197
812.50,86.200
813.00,86.853
813.50,86.141
814.00,85.708
814.50,85.940
815.00,86.384
815.50,86.391
816.00,86.553
816.50,85.989
817.00,86.356
817.50,85.949
818.00,85.696
818.50,85.639
819.00,85.972
819.50,86.027
820.00,85.771
820.50,85.756
821.00,85.282
821.50,85.834
822.00,85.252
822.50,85.687
823.00,85.059
823.50,85.455
824.00,85.356
824.50,85.197
825.00,85.187
825.50,85.629
826.00,85.053
826.50,84.873
827.00,85.123
827.50,84.584
828.00,85.440
828.50,84.519
829.00,85.524
829.50,84.923
830.00,84.846
830.50,84.856
831.00,84.623
831.50,85.315
832.00,84.599
832.50,85.249
833.00,85.395
833.50,84.921
834.00,85.331
834.50,85.121
835.00,85.466
835.50,85.498
836.00,85.515
836.50,85.161
837.00,85.403
837.50,85.590
838.00,85.971
838.50,85.694
839.00,85.601
839.50,85.509
840.00,85.865
840.50,85.271
841.00,86.004
841.50,85.038
842.00,85.615
842.50,85.360
843.00,85.374
843.50,86.199
844.00,86.037
844.50,84.834
845.00,85.388
845.50,85.565
846.00,85.253
846.50,85.268
847.00,85.627
847.50,85.033
848.00,85.373
848.50,85.503
849.00,86.371
849.50,85.168
850.00,85.226
850.50,85.072
851.00,85.242
851.50,84.617
852.00,85.101
852.50,84.667
853.00,85.472
853.50,85.199
854.00,85.536
854.50,84.873
855.00,84.101
855.50,84.726
856.00,84.606
856.50,83.907
857.00,84.065
857.50,84.332
858.00,84.414
858.50,84.470
859.00,83.973
859.50,84.887
860.00,84.255
860.50,83.626
861.00,83.369
861.50,83.868
862.00,83.534
862.50,82.891
863.00,83.505
863.50,82.254
864.00,82.725
864.50,82.782
865.00,83.402
865.50,82.711
866.00,82.596
866.50,82.175
867.00,82.175
867.50,82.755
868.00,81.863
868.50,81.208
869.00,81.571
869.50,80.842
870.00,80.067
870.50,80.953
871.00,79.577
871.50,79.800
872.00,81.732
872.50,79.041
873.00,80.506
873.50,78.464
874.00,78.927
874.50,78.618
875.00,78.168
875.50,78.150
876.00,77.090
876.50,78.037
877.00,76.493
877.50,76.292
878.00,75.803
878.50,74.184
879.00,74.677
879.50,73.364
880.00,73.249
880.50,73.611
881.00,72.793
881.50,72.791
882.00,70.662
882.50,70.189
883.00,69.457
883.50,68.509
884.00,69.253
884.50,68.237
885.00,66.740
885.50,65.794
886.00,65.146
886.50,66.224
887.00,63.961
887.50,63.778
888.00,63.023
888.50,62.835
889.00,59.954
889.50,59.595
890.00,58.038
890.50,57.553
891.00,57.590
891.50,55.525
892.00,54.841
892.50,54.541
893.00,53.577
893.50,53.553
894.00,50.178
894.50,49.491
895.00,48.101
895.50,46.052
896.00,47.538
896.50,46.469
897.00,43.822
897.50,43.809
898.00,41.976
898.50,40.244
899.00,38.221
899.50,40.139
900.00,38.144
900.50,35.495
901.00,34.502
901.50,33.529
902.00,32.430
902.50,31.477
903.00,30.582
903.50,29.754
904.00,29.093
904.50,28.423
905.00,27.891
905.50,27.439
906.00,26.905
906.50,26.726
907.00,26.522
907.50,26.357
908.00,26.588
908.50,26.791
909.00,26.983
909.50,27.383
910.00,27.977
910.50,28.631
911.00,29.139
911.50,30.206
912.00,30.959
912.50,31.895
913.00,32.729
913.50,33.659
914.00,34.391
914.50,35.240
915.00,36.105
915.50,36.805
916.00,37.389
916.50,38.066
917.00,38.808
917.50,39.242
918.00,39.772
918.50,40.037
919.00,40.455
919.50,40.894
920.00,41.163
920.50,41.472
921.00,41.521
921.50,41.592
922.00,41.670
922.50,41.812
923.00,41.861
923.50,41.725
924.00,41.669
924.50,41.664
925.00,41.553
925.50,41.470
926.00,41.337
926.50,41.179
927.00,41.013
927.50,40.816
928.00,40.659
928.50,40.525
929.00,40.327
929.50,40.090
930.00,39.980
930.50,39.836
931.00,39.603
931.50,39.516
932.00,39.329
932.50,39.133
933.00,39.012
933.50,38.842
934.00,38.758
934.50,38.616
935.00,38.529
935.50,38.404
936.00,38.345
936.50,38.272
937.00,38.169
937.50,38.179
938.00,38.177
938.50,38.186
939.00,38.159
939.50,38.150
940.00,38.104
940.50,38.198
941.00,38.252
941.50,38.309
942.00,38.314
942.50,38.370
943.00,38.430
943.50,38.528
944.00,38.541
944.50,38.549
945.00,38.575
945.50,38.704
946.00,38.658
946.50,38.659
947.00,38.711
947.50,38.701
948.00,38.675
948.50,38.724
949.00,38.570
949.50,38.584
950.00,38.514
950.50,38.377
951.00,38.370
951.50,38.307
952.00,38.313
952.50,38.302
953.00,38.253
953.50,38.152
954.00,38.179
954.50,38.242
955.00,38.230
955.50,38.328
956.00,38.304
956.50,38.283
957.00,38.303
957.50,38.434
958.00,38.430
958.50,38.447
959.00,38.451
959.50,38.455
960.00,38.415
960.50,38.407
961.00,38.266
961.50,38.121
962.00,38.079
962.50,37.884
963.00,37.615
963.50,37.431
964.00,37.090
964.50,36.784
965.00,36.437
965.50,35.987
966.00,35.494
966.50,34.892
967.00,34.284
967.50,33.559
968.00,32.642
968.50,31.525
969.00,30.336
969.50,28.636
970.00,26.648
970.50,23.900
971.00,20.742
971.50,16.712
972.00,11.916
972.50,6.732
973.00,3.075
973.50,1.161
974.00,0.529
974.50,0.368
975.00,0.306
975.50,0.441
976.00,0.689
976.50,1.182
977.00,2.026
977.50,3.445
978.00,5.392
978.50,7.954
979.00,11.182
979.50,14.750
980.00,18.372
980.50,22.101
981.00,25.685
981.50,28.968
982.00,32.018
982.50,34.790
983.00,37.488
983.50,39.804
984.00,41.849
984.50,43.436
985.00,45.173
985.50,46.436
986.00,47.625
986.50,48.602
987.00,49.547
987.50,50.389
988.00,51.186
988.50,51.842
989.00,52.502
989.50,53.164
990.00,53.674
990.50,54.225
991.00,54.726
991.50,55.237
992.00,55.669
992.50,56.005
993.00,56.430
993.50,56.714
994.00,56.985
994.50,57.276
995.00,57.447
995.50,57.723
996.00,57.943
996.50,58.150
997.00,58.317
997.50,58.481
998.00,58.707
998.50,58.916
999.00,59.103
999.50,59.294
1000.00,59.557
1000.50,59.808
1001.00,60.061
1001.50,60.312
1002.00,60.602
1002.50,60.915
1003.00,61.240
1003.50,61.525
1004.00,61.830
1004.50,62.221
1005.00,62.550
1005.50,62.922
1006.00,63.260
1006.50,63.731
1007.00,64.133
1007.50,64.462
1008.00,64.926
1008.50,65.276
1009.00,65.718
1009.50,66.124
1010.00,66.442
1010.50,66.777
1011.00,67.206
1011.50,67.596
1012.00,67.964
1012.50,68.326
1013.00,68.708
1013.50,69.176
1014.00,69.496
1014.50,69.812
1015.00,70.143
1015.50,70.514
1016.00,70.923
1016.50,71.277
1017.00,71.618
1017.50,71.984
1018.00,72.302
1018.50,72.666
1019.00,72.882
1019.50,73.354
1020.00,73.672
1020.50,74.074
1021.00,74.370
1021.50,74.675
1022.00,74.969
1022.50,75.333
1023.00,75.628
1023.50,75.974
1024.00,76.329
1024.50,76.583
1025.00,76.911
1025.50,77.232
1026.00,77.539
1026.50,77.912
1027.00,78.155
1027.50,78.512
1028.00,78.800
1028.50,79.129
1029.00,79.356
1029.50,79.708
1030.00,80.036
1030.50,80.278
1031.00,80.551
1031.50,80.868
1032.00,81.126
1032.50,81.401
1033.00,81.689
1033.50,81.955
1034.00,82.200
1034.50,82.436
1035.00,82.689
1035.50,82.899
1036.00,83.128
1036.50,83.349
1037.00,83.598
1037.50,83.785
1038.00,83.993
1038.50,84.153
1039.00,84.395
1039.50,84.536
1040.00,84.730
1040.50,84.856
1041.00,85.039
1041.50,85.169
1042.00,85.321
1042.50,85.461
1043.00,85.595
1043.50,85.678
1044.00,85.849
1044.50,85.953
1045.00,85.993
1045.50,86.152
1046.00,86.305
1046.50,86.387
1047.00,86.441
1047.50,86.537
1048.00,86.607
1048.50,86.626
1049.00,86.683
1049.50,86.835
1050.00,86.876
1050.50,86.964
1051.00,86.998
1051.50,87.056
1052.00,87.118
1052.50,87.146
1053.00,87.207
1053.50,87.268
1054.00,87.344
1054.50,87.403
1055.00,87.387
1055.50,87.432
1056.00,87.530
1056.50,87.573
1057.00,87.628
1057.50,87.664
1058.00,87.665
1058.50,87.754
1059.00,87.765
1059.50,87.729
1060.00,87.823
1060.50,87.811
1061.00,87.823
1061.50,87.860
1062.00,87.856
1062.50,87.946
1063.00,87.962
1063.50,87.944
1064.00,87.942
1064.50,87.966
1065.00,87.956
1065.50,87.947
1066.00,88.020
1066.50,88.093
1067.00,88.050
1067.50,88.086
1068.00,88.129
1068.50,88.160
1069.00,88.126
1069.50,88.150
1070.00,88.286
1070.50,88.231
1071.00,88.248
1071.50,88.309
1072.00,88.295
1072.50,88.284
1073.00,88.287
1073.50,88.362
1074.00,88.423
1074.50,88.424
1075.00,88.433
1075.50,88.444
1076.00,88.448
1076.50,88.469
1077.00,88.440
1077.50,88.437
1078.00,88.544
1078.50,88.530
1079.00,88.611
1079.50,88.607
1080.00,88.610
1080.50,88.674
1081.00,88.662
1081.50,88.655
1082.00,88.707
1082.50,88.670
1083.00,88.734
1083.50,88.765
1084.00,88.723
1084.50,88.784
1085.00,88.754
1085.50,88.770
1086.00,88.856
1086.50,88.825
1087.00,88.828
1087.50,88.867
1088.00,88.843
1088.50,88.832
1089.00,88.862
1089.50,88.880
1090.00,88.891
1090.50,88.861
1091.00,88.930
1091.50,88.959
1092.00,88.963
1092.50,88.967
1093.00,88.931
1093.50,88.969
1094.00,89.014
1094.50,89.058
1095.00,89.079
1095.50,89.037
1096.00,89.086
1096.50,89.102
1097.00,89.085
1097.50,89.130
1098.00,89.095
1098.50,89.123
1099.00,89.103
1099.50,89.095
1100.00,89.111
1100.50,89.171
1101.00,89.166
1101.50,89.160
1102.00,89.192
1102.50,89.185
1103.00,89.159
1103.50,89.200
1104.00,89.195
1104.50,89.163
1105.00,89.181
1105.50,89.195
1106.00,89.216
1106.50,89.199
1107.00,89.213
1107.50,89.194
1108.00,89.222
1108.50,89.202
1109.00,89.197
1109.50,89.208
1110.00,89.178
1110.50,89.202
1111.00,89.240
1111.50,89.214
1112.00,89.231
1112.50,89.209
1113.00,89.188
1113.50,89.176
1114.00,89.214
1114.50,89.214
1115.00,89.221
1115.50,89.209
1116.00,89.177
1116.50,89.219
1117.00,89.202
1117.50,89.225
1118.00,89.236
1118.50,89.248
1119.00,89.278
1119.50,89.227
1120.00,89.255
1120.50,89.278
1121.00,89.273
1121.50,89.253
1122.00,89.287
1122.50,89.235
1123.00,89.283
1123.50,89.249
1124.00,89.260
1124.50,89.238
1125.00,89.331
1125.50,89.232
1126.00,89.222
1126.50,89.248
1127.00,89.308
1127.50,89.237
1128.00,89.235
1128.50,89.271
1129.00,89.216
1129.50,89.242
1130.00,89.219
1130.50,89.255
1131.00,89.240
1131.50,89.219
1132.00,89.222
1132.50,89.242
1133.00,89.232
1133.50,89.263
1134.00,89.271
1134.50,89.328
1135.00,89.227
1135.50,89.231
1136.00,89.291
1136.50,89.230
1137.00,89.260
1137.50,89.230
1138.00,89.261
1138.50,89.350
1139.00,89.287
1139.50,89.312
1140.00,89.260
1140.50,89.302
1141.00,89.283
1141.50,89.345
1142.00,89.302
1142.50,89.334
1143.00,89.310
1143.50,89.311
1144.00,89.346
1144.50,89.350
1145.00,89.394
1145.50,89.363
1146.00,89.388
1146.50,89.370
1147.00,89.392
1147.50,89.356
1148.00,89.398
1148.50,89.407
1149.00,89.404
1149.50,89.360
1150.00,89.395
1150.50,89.387
1151.00,89.395
1151.50,89.395
1152.00,89.345
1152.50,89.390
1153.00,89.372
1153.50,89.361
1154.00,89.339
1154.50,89.360
1155.00,89.370
1155.50,89.352
1156.00,89.350
1156.50,89.393
1157.00,89.388
1157.50,89.275
1158.00,89.360
1158.50,89.309
1159.00,89.327
1159.50,89.344
1160.00,89.340
1160.50,89.374
1161.00,89.381
1161.50,89.352
1162.00,89.332
1162.50,89.332
1163.00,89.366
1163.50,89.342
1164.00,89.337
1164.50,89.401
1165.00,89.350
1165.50,89.353
1166.00,89.389
1166.50,89.404
1167.00,89.483
1167.50,89.393
1168.00,89.350
1168.50,89.406
1169.00,89.382
1169.50,89.345
1170.00,89.433
1170.50,89.388
1171.00,89.325
1171.50,89.410
1172.00,89.387
1172.50,89.401
1173.00,89.371
1173.50,89.387
1174.00,89.401
1174.50,89.396
1175.00,89.413
1175.50,89.396
1176.00,89.349
1176.50,89.409
1177.00,89.341
1177.50,89.328
1178.00,89.386
1178.50,89.375
1179.00,89.373
1179.50,89.362
1180.00,89.399
1180.50,89.382
1181.00,89.335
1181.50,89.366
1182.00,89.359
1182.50,89.380
1183.00,89.353
1183.50,89.361
1184.00,89.369
1184.50,89.350
1185.00,89.366
1185.50,89.430
1186.00,89.346
1186.50,89.365
1187.00,89.386
1187.50,89.383
1188.00,89.400
1188.50,89.395
1189.00,89.395
1189.50,89.382
1190.00,89.368
1190.50,89.390
1191.00,89.382
1191.50,89.400
1192.00,89.382
1192.50,89.379
1193.00,89.375
1193.50,89.393
1194.00,89.397
1194.50,89.452
1195.00,89.402
1195.50,89.398
1196.00,89.421
1196.50,89.451
1197.00,89.411
1197.50,89.415
1198.00,89.423
1198.50,89.402
1199.00,89.436
1199.50,89.440
1200.00,89.391
1200.50,89.407
1201.00,89.418
1201.50,89.354
1202.00,89.418
1202.50,89.431
1203.00,89.371
1203.50,89.409
1204.00,89.358
1204.50,89.337
1205.00,89.370
1205.50,89.367
1206.00,89.380
1206.50,89.372
1207.00,89.339
1207.50,89.349
1208.00,89.322
1208.50,89.356
1209.00,89.406
1209.50,89.336
1210.00,89.363
1210.50,89.370
1211.00,89.365
1211.50,89.380
1212.00,89.351
1212.50,89.342
1213.00,89.390
1213.50,89.425
1214.00,89.406
1214.50,89.403
1215.00,89.416
1215.50,89.381
1216.00,89.422
1216.50,89.386
1217.00,89.369
1217.50,89.361
1218.00,89.380
1218.50,89.369
1219.00,89.375
1219.50,89.401
1220.00,89.414
1220.50,89.408
1221.00,89.441
1221.50,89.415
1222.00,89.434
1222.50,89.434
1223.00,89.443
1223.50,89.397
1224.00,89.433
1224.50,89.444
1225.00,89.382
1225.50,89.417
1226.00,89.489
1226.50,89.422
1227.00,89.357
1227.50,89.418
1228.00,89.416
1228.50,89.389
1229.00,89.410
1229.50,89.424
1230.00,89.370
1230.50,89.409
1231.00,89.418
1231.50,89.393
1232.00,89.419
1232.50,89.455
1233.00,89.403
1233.50,89.418
1234.00,89.437
1234.50,89.378
1235.00,89.387
1235.50,89.451
1236.00,89.413
1236.50,89.424
1237.00,89.454
1237.50,89.481
1238.00,89.444
1238.50,89.470
1239.00,89.451
1239.50,89.491
1240.00,89.445
1240.50,89.415
1241.00,89.432
1241.50,89.482
1242.00,89.437
1242.50,89.477
1243.00,89.452
1243.50,89.423
1244.00,89.422
1244.50,89.428
1245.00,89.480
1245.50,89.452
1246.00,89.477
1246.50,89.472
1247.00,89.486
1247.50,89.476
1248.00,89.506
1248.50,89.480
1249.00,89.506
1249.50,89.486
1250.00,89.471
1250.50,89.493
1251.00,89.509
1251.50,89.469
1252.00,89.442
1252.50,89.476
1253.00,89.489
1253.50,89.474
1254.00,89.472
1254.50,89.461
1255.00,89.463
1255.50,89.447
1256.00,89.437
1256.50,89.473
1257.00,89.424
1257.50,89.400
1258.00,89.408
1258.50,89.449
1259.00,89.414
1259.50,89.442
1260.00,89.439
1260.50,89.448
1261.00,89.430
1261.50,89.447
1262.00,89.443
1262.50,89.419
1263.00,89.376
1263.50,89.406
1264.00,89.397
1264.50,89.405
1265.00,89.467
1265.50,89.409
1266.00,89.441
1266.50,89.457
1267.00,89.447
1267.50,89.501
1268.00,89.494
1268.50,89.429
1269.00,89.444
1269.50,89.423
1270.00,89.445
1270.50,89.476
1271.00,89.509
1271.50,89.479
1272.00,89.473
1272.50,89.511
1273.00,89.494
1273.50,89.523
1274.00,89.520
1274.50,89.496
1275.00,89.517
1275.50,89.503
1276.00,89.501
1276.50,89.510
1277.00,89.551
1277.50,89.512
1278.00,89.513
1278.50,89.550
1279.00,89.593
1279.50,89.592
1280.00,89.600
1280.50,89.519
1281.00,89.546
1281.50,89.536
1282.00,89.527
1282.50,89.510
1283.00,89.470
1283.50,89.530
1284.00,89.554
1284.50,89.514
1285.00,89.539
1285.50,89.504
1286.00,89.510
1286.50,89.494
1287.00,89.517
1287.50,89.475
1288.00,89.518
1288.50,89.530
1289.00,89.500
1289.50,89.506
1290.00,89.484
1290.50,89.487
1291.00,89.543
1291.50,89.511
1292.00,89.530
1292.50,89.534
1293.00,89.542
1293.50,89.512
1294.00,89.507
1294.50,89.545
1295.00,89.518
1295.50,89.552
1296.00,89.537
1296.50,89.523
1297.00,89.542
1297.50,89.555
1298.00,89.549
1298.50,89.561
1299.00,89.573
1299.50,89.550
1300.00,89.554
1300.50,89.592
1301.00,89.610
1301.50,89.576
1302.00,89.569
1302.50,89.575
1303.00,89.574
1303.50,89.566
1304.00,89.651
1304.50,89.665
1305.00,89.663
1305.50,89.706
1306.00,89.657
1306.50,89.711
1307.00,89.690
1307.50,89.664
1308.00,89.641
1308.50,89.700
1309.00,89.685
1309.50,89.672
1310.00,89.711
1310.50,89.658
1311.00,89.663
1311.50,89.699
1312.00,89.693
1312.50,89.667
1313.00,89.667
1313.50,89.668
1314.00,89.646
1314.50,89.674
1315.00,89.615
1315.50,89.669
1316.00,89.686
1316.50,89.626
1317.00,89.725
1317.50,89.670
1318.00,89.666
1318.50,89.671
1319.00,89.688
1319.50,89.680
1320.00,89.659
1320.50,89.547
1321.00,89.511
1321.50,89.508
1322.00,89.478
1322.50,89.533
1323.00,89.495
1323.50,89.480
1324.00,89.500
1324.50,89.502
1325.00,89.555
1325.50,89.515
1326.00,89.556
1326.50,89.530
1327.00,89.551
1327.50,89.583
1328.00,89.528
1328.50,89.525
1329.00,89.532
1329.50,89.532
1330.00,89.521
1330.50,89.563
1331.00,89.564
1331.50,89.615
1332.00,89.604
1332.50,89.608
1333.00,89.627
1333.50,89.628
1334.00,89.577
1334.50,89.601
1335.00,89.655
1335.50,89.623
1336.00,89.585
1336.50,89.644
1337.00,89.614
1337.50,89.642
1338.00,89.670
1338.50,89.588
1339.00,89.581
1339.50,89.600
1340.00,89.598
1340.50,89.601
1341.00,89.600
1341.50,89.589
1342.00,89.621
1342.50,89.638
1343.00,89.636
1343.50,89.625
1344.00,89.632
1344.50,89.590
1345.00,89.592
1345.50,89.578
1346.00,89.591
1346.50,89.636
1347.00,89.606
1347.50,89.757
1348.00,89.566
1348.50,89.676
1349.00,89.593
1349.50,89.592
1350.00,89.619
1350.50,89.585
1351.00,89.633
1351.50,89.648
1352.00,89.559
1352.50,89.511
1353.00,89.617
1353.50,89.638
1354.00,89.622
1354.50,89.728
1355.00,89.598
1355.50,89.649
1356.00,89.510
1356.50,89.637
1357.00,89.715
1357.50,89.563
1358.00,89.631
1358.50,89.641
1359.00,89.641
1359.50,89.733
1360.00,89.533
1360.50,89.821
1361.00,89.364
1361.50,89.769
1362.00,90.032
1362.50,88.768
1363.00,89.452
1363.50,89.656
1364.00,89.890
1364.50,89.759
1365.00,89.939
1365.50,89.064
1366.00,89.604
1366.50,89.901
1367.00,89.106
1367.50,89.926
1368.00,89.590
1368.50,89.167
1369.00,89.556
1369.50,90.134
1370.00,89.382
1370.50,90.334
1371.00,89.083
1371.50,89.641
1372.00,89.725
1372.50,89.540
1373.00,89.694
1373.50,89.604
1374.00,89.738
1374.50,89.801
1375.00,89.544
1375.50,89.760
1376.00,89.650
1376.50,89.987
1377.00,89.546
1377.50,89.596
1378.00,89.763
1378.50,89.797
1379.00,89.356
1379.50,89.656
1380.00,89.834
1380.50,89.889
1381.00,89.170
1381.50,89.548
1382.00,89.927
1382.50,89.636
1383.00,89.136
1383.50,89.632
1384.00,89.581
1384.50,89.817
1385.00,89.725
1385.50,89.616
1386.00,89.670
1386.50,89.984
1387.00,89.684
1387.50,89.849
1388.00,89.544
1388.50,89.527
1389.00,89.574
1389.50,89.696
1390.00,89.616
1390.50,89.579
1391.00,89.581
1391.50,89.681
1392.00,89.887
1392.50,89.488
1393.00,89.326
1393.50,89.617
1394.00,89.661
1394.50,89.794
1395.00,89.608
1395.50,89.511
1396.00,89.603
1396.50,89.428
1397.00,89.407
1397.50,89.586
1398.00,89.639
1398.50,89.639
1399.00,89.627
1399.50,89.962
1400.00,89.569
1400.50,89.998
1401.00,89.146
1401.50,89.667
1402.00,89.430
1402.50,89.631
1403.00,89.658
1403.50,89.637
1404.00,89.721
1404.50,89.815
1405.00,89.760
1405.50,89.304
1406.00,89.653
1406.50,89.703
1407.00,89.802
1407.50,89.570
1408.00,89.588
1408.50,89.679
1409.00,89.786
1409.50,89.559
1410.00,89.485
1410.50,89.633
1411.00,89.660
1411.50,89.630
1412.00,89.679
1412.50,89.537
1413.00,89.615
1413.50,89.680
1414.00,89.728
1414.50,89.480
1415.00,89.536
1415.50,89.559
1416.00,89.564
1416.50,89.556
1417.00,89.626
1417.50,89.531
1418.00,89.612
1418.50,89.663
1419.00,89.570
1419.50,89.525
1420.00,89.551
1420.50,89.584
1421.00,89.512
1421.50,89.536
1422.00,89.528
1422.50,89.608
1423.00,89.601
1423.50,89.590
1424.00,89.510
1424.50,89.533
1425.00,89.582
1425.50,89.615
1426.00,89.539
1426.50,89.559
1427.00,89.629
1427.50,89.564
1428.00,89.669
1428.50,89.540
1429.00,89.498
1429.50,89.595
1430.00,89.537
1430.50,89.613
1431.00,89.672
1431.50,89.552
1432.00,89.652
1432.50,89.533
1433.00,89.574
1433.50,89.640
1434.00,89.675
1434.50,89.483
1435.00,89.638
1435.50,89.610
1436.00,89.688
1436.50,89.623
1437.00,89.700
1437.50,89.687
1438.00,89.540
1438.50,89.635
1439.00,89.640
1439.50,89.612
1440.00,89.577
1440.50,89.628
1441.00,89.699
1441.50,89.605
1442.00,89.599
1442.50,89.661
1443.00,89.594
1443.50,89.627
1444.00,89.645
1444.50,89.617
1445.00,89.621
1445.50,89.749
1446.00,89.506
1446.50,89.571
1447.00,89.647
1447.50,89.578
1448.00,89.577
1448.50,89.529
1449.00,89.548
1449.50,89.502
1450.00,89.537
1450.50,89.584
1451.00,89.427
1451.50,89.466
1452.00,89.504
1452.50,89.462
1453.00,89.525
1453.50,89.456
1454.00,89.442
1454.50,89.496
1455.00,89.515
1455.50,89.466
1456.00,89.418
1456.50,89.388
1457.00,89.379
1457.50,89.326
1458.00,89.367
1458.50,89.354
1459.00,89.359
1459.50,89.348
1460.00,89.339
1460.50,89.353
1461.00,89.285
1461.50,89.316
1462.00,89.227
1462.50,89.273
1463.00,89.256
1463.50,89.248
1464.00,89.169
1464.50,89.217
1465.00,89.186
1465.50,89.225
1466.00,89.179
1466.50,89.139
1467.00,89.134
1467.50,89.097
1468.00,89.106
1468.50,89.026
1469.00,89.000
1469.50,89.038
1470.00,89.060
1470.50,88.964
1471.00,89.089
1471.50,88.921
1472.00,89.007
1472.50,89.083
1473.00,88.916
1473.50,88.901
1474.00,88.910
1474.50,88.885
1475.00,88.854
1475.50,88.865
1476.00,88.864
1476.50,88.866
1477.00,88.898
1477.50,88.816
1478.00,88.859
1478.50,88.743
1479.00,88.763
1479.50,88.798
1480.00,88.744
1480.50,88.799
1481.00,88.722
1481.50,88.725
1482.00,88.736
1482.50,88.697
1483.00,88.742
1483.50,88.661
1484.00,88.666
1484.50,88.693
1485.00,88.702
1485.50,88.670
1486.00,88.661
1486.50,88.687
1487.00,88.674
1487.50,88.684
1488.00,88.680
1488.50,88.677
1489.00,88.654
1489.50,88.630
1490.00,88.608
1490.50,88.622
1491.00,88.680
1491.50,88.658
1492.00,88.645
1492.50,88.647
1493.00,88.652
1493.50,88.670
1494.00,88.708
1494.50,88.658
1495.00,88.709
1495.50,88.695
1496.00,88.737
1496.50,88.711
1497.00,88.708
1497.50,88.770
1498.00,88.683
1498.50,88.713
1499.00,88.754
1499.50,88.712
1500.00,88.743
1500.50,88.798
1501.00,88.812
1501.50,88.808
1502.00,88.828
1502.50,88.798
1503.00,88.800
1503.50,88.839
1504.00,88.862
1504.50,88.849
1505.00,88.886
1505.50,88.861
1506.00,88.879
1506.50,88.943
1507.00,88.904
1507.50,88.954
1508.00,88.921
1508.50,88.906
1509.00,88.965
1509.50,88.954
1510.00,88.989
1510.50,88.999
1511.00,88.940
1511.50,89.001
1512.00,88.940
1512.50,88.960
1513.00,89.032
1513.50,89.005
1514.00,88.959
1514.50,89.001
1515.00,88.999
1515.50,88.963
1516.00,88.980
1516.50,88.875
1517.00,88.962
1517.50,88.902
1518.00,88.912
1518.50,88.900
1519.00,88.825
1519.50,88.844
1520.00,88.832
1520.50,88.819
1521.00,88.787
1521.50,88.725
1522.00,88.670
1522.50,88.640
1523.00,88.561
1523.50,88.561
1524.00,88.476
1524.50,88.407
1525.00,88.318
1525.50,88.263
1526.00,88.282
1526.50,88.195
1527.00,88.141
1527.50,88.020
1528.00,87.901
1528.50,87.737
1529.00,87.705
1529.50,87.588
1530.00,87.425
1530.50,87.265
1531.00,87.163
1531.50,87.024
1532.00,86.797
1532.50,86.560
1533.00,86.314
1533.50,85.980
1534.00,85.759
1534.50,85.527
1535.00,85.410
1535.50,85.217
1536.00,85.282
1536.50,85.509
1537.00,85.822
1537.50,86.105
1538.00,86.382
1538.50,86.587
1539.00,86.839
1539.50,86.870
1540.00,86.930
1540.50,86.964
1541.00,86.898
1541.50,86.836
1542.00,86.868
1542.50,86.789
1543.00,86.789
1543.50,86.775
1544.00,86.791
1544.50,86.940
1545.00,86.991
1545.50,87.131
1546.00,87.242
1546.50,87.351
1547.00,87.488
1547.50,87.597
1548.00,87.702
1548.50,87.839
1549.00,87.905
1549.50,88.022
1550.00,88.113
1550.50,88.215
1551.00,88.272
1551.50,88.361
1552.00,88.408
1552.50,88.433
1553.00,88.505
1553.50,88.545
1554.00,88.570
1554.50,88.706
1555.00,88.756
1555.50,88.729
1556.00,88.751
1556.50,88.790
1557.00,88.859
1557.50,88.911
1558.00,88.955
1558.50,88.961
1559.00,89.028
1559.50,89.087
1560.00,89.048
1560.50,89.090
1561.00,89.089
1561.50,89.154
1562.00,89.221
1562.50,89.220
1563.00,89.182
1563.50,89.276
1564.00,89.323
1564.50,89.314
1565.00,89.282
1565.50,89.361
1566.00,89.362
1566.50,89.349
1567.00,89.408
1567.50,89.441
1568.00,89.415
1568.50,89.457
1569.00,89.534
1569.50,89.502
1570.00,89.517
1570.50,89.506
1571.00,89.506
1571.50,89.561
1572.00,89.579
1572.50,89.617
1573.00,89.721
1573.50,89.700
1574.00,89.672
1574.50,89.701
1575.00,89.757
1575.50,89.810
1576.00,89.842
1576.50,89.846
1577.00,89.808
1577.50,89.810
1578.00,89.801
1578.50,89.830
1579.00,89.866
1579.50,89.874
1580.00,89.876
1580.50,89.880
1581.00,89.918
1581.50,89.902
1582.00,89.915
1582.50,89.953
1583.00,89.918
1583.50,89.871
1584.00,89.900
1584.50,89.857
1585.00,89.918
1585.50,89.950
1586.00,89.883
1586.50,89.895
1587.00,89.876
1587.50,89.920
1588.00,89.986
1588.50,89.932
1589.00,89.917
1589.50,89.913
1590.00,89.902
1590.50,89.921
1591.00,89.888
1591.50,89.918
1592.00,89.985
1592.50,89.963
1593.00,89.988
1593.50,89.898
1594.00,89.964
1594.50,89.974
1595.00,90.007
1595.50,89.980
1596.00,90.143
1596.50,90.004
1597.00,89.982
1597.50,90.066
1598.00,90.094
1598.50,90.084
1599.00,90.139
1599.50,90.165
1600.00,90.150
